File: PhD Work/Raman Plotter_050524/Plot Data/UG Glasses/CaZn/JC_UG_CaZn2_5th_cut_bas_ther_vect_040624.csv
RamanShift,CaZn2
49.85,-6.86E-05
55.64,0.000208309
61.42,0.000610889
67.21,0.000697049
72.99,0.001143934
78.78,0.001300326
84.56,0.001539443
90.35,0.001749906
96.13,0.001915589
101.92,0.001919921
107.7,0.002223724
113.49,0.002142867
119.27,0.002249105
125.06,0.002351184
130.85,0.002247451
136.63,0.002266726
142.42,0.002240747
148.2,0.002089507
153.99,0.002147764
159.77,0.001976076
165.56,0.001879874
171.34,0.001913684
177.13,0.001781608
182.91,0.001711554
188.7,0.001689736
194.48,0.001589559
200.27,0.001526801
206.06,0.001646856
211.84,0.001604097
217.63,0.001687438
223.41,0.001698889
229.2,0.001680343
234.98,0.00172785
240.77,0.001765494
246.55,0.001936815
252.34,0.001981364
258.12,0.002057391
263.91,0.002219656
269.69,0.002143691
275.48,0.002171631
281.27,0.002164902
287.05,0.00222584
292.84,0.002410075
298.62,0.002622119
304.41,0.002718114
310.19,0.002934113
315.98,0.003160843
321.76,0.003297319
327.55,0.003569522
333.33,0.003967364
339.12,0.004524892
344.91,0.005218859
350.69,0.006042978
356.48,0.006864066
362.26,0.007717182
368.05,0.008581228
373.83,0.009347783
379.62,0.01015202
385.4,0.0107733
391.19,0.0117314
396.97,0.0124693
402.76,0.0128027
408.54,0.0134765
414.33,0.0133959
420.12,0.0135871
425.9,0.0133403
431.69,0.013194
437.47,0.0129994
443.26,0.0125212
449.04,0.0125105
454.83,0.0121786
460.61,0.0116999
466.4,0.0117522
472.18,0.0112693
477.97,0.0111088
483.75,0.0111733
489.54,0.0106617
495.33,0.0101049
501.11,0.009663578
506.9,0.009305829
512.68,0.00881957
518.47,0.008237453
524.25,0.007282193
530.04,0.006524318
535.82,0.005999439
541.61,0.004746097
547.39,0.003956311
553.18,0.002343759
558.96,0.001757184
564.75,0.000606493
570.54,0.00019125
576.32,7.74E-05
582.11,0.000224832
587.89,0.000914616
593.68,0.001797804
599.46,0.00285397
605.25,0.003972712
611.03,0.005306952
616.82,0.006816836
622.6,0.008123995
628.39,0.009669144
634.18,0.0110216
639.96,0.0123932
645.75,0.0136413
651.53,0.01518
657.32,0.0162172
663.1,0.0175212
668.89,0.018882
674.67,0.0195519
680.46,0.0199696
686.24,0.01976
692.03,0.0194402
697.81,0.01882686
703.6,0.0182338
709.39,0.0191671
715.17,0.01999081
720.96,0.0210152
726.74,0.0224771
732.53,0.0237736
738.31,0.02527267
744.1,0.0273144
749.88,0.0289857
755.67,0.0300728
761.45,0.0302746
767.24,0.0290949
773.02,0.0260554
778.81,0.0218547
784.6,0.0163423
790.38,0.0115565
796.17,0.007351262
801.95,0.004199302
807.74,0.002669242
813.52,0.002049918
819.31,0.002550434
825.09,0.003870313
830.88,0.004769839
836.66,0.006435871
842.45,0.007418908
848.23,0.007911525
854.02,0.008506203
859.81,0.008594835
865.59,0.008712694
871.38,0.008142761
877.16,0.007596398
882.95,0.006344675
888.73,0.005394606
894.52,0.004829265
900.3,0.005300108
906.09,0.006236468
911.87,0.00801905
917.66,0.0109163
923.45,0.013749
929.23,0.017051
935.02,0.0197356
940.8,0.0226682
946.59,0.0251223
952.37,0.0273513
958.16,0.0287212
963.94,0.02969055
969.73,0.0302336
975.51,0.03077043
981.3,0.0306482
987.08,0.0302315
992.87,0.029526
998.66,0.0270341
1004.44,0.0248797
1010.23,0.021465
1016.01,0.018628
1021.8,0.0155884
1027.58,0.013345
1033.37,0.0109482
1039.15,0.009436272
1044.94,0.007554632
1050.72,0.006014136
1056.51,0.004636934
1062.3,0.003414373
1068.08,0.00248171
1073.87,0.001655765
1079.65,0.000602373
1085.44,0.000430015
1091.22,4.19E-06
1097.01,0.000506199
1102.79,0.001282691
1108.58,0.001924866
1114.36,0.003065098
1120.15,0.005159138
1125.93,0.007354333
1131.72,0.009449814
1137.51,0.01202719
1143.29,0.0152253
1149.08,0.0183402
1154.86,0.0213695
1160.65,0.0242972
1166.43,0.0272328
1172.22,0.0297525
1178,0.0321105
1183.79,0.0340105
1189.57,0.0359321
1195.36,0.0369639
1201.14,0.0379841
1206.93,0.0390296
1212.72,0.0399308
1218.5,0.0399501
1224.29,0.0405049
1230.07,0.0406732
1235.86,0.0407281
1241.64,0.0406973
1247.43,0.040901
1253.21,0.0409352
1259,0.0409754
1264.78,0.041543
1270.57,0.0421621
1276.35,0.0425811
1282.14,0.0428127
1287.93,0.044105
1293.71,0.0452734
1299.5,0.0465664
1305.28,0.0471981
1311.07,0.0479901
1316.85,0.0497733
1322.64,0.0510876
1328.42,0.0518829
1334.21,0.053236
1339.99,0.053938
1345.78,0.0545189
1351.57,0.0557747
1357.35,0.0562557
1363.14,0.0571863
1368.92,0.0576144
1374.71,0.058488
1380.49,0.0589051
1386.28,0.0585778
1392.06,0.0588442
1397.85,0.0588891
1403.63,0.058083
1409.42,0.0581365
1415.2,0.0570591
1420.99,0.0570023
1426.78,0.0556828
1432.56,0.0548874
1438.35,0.0537491
1444.13,0.0527997
1449.92,0.0512133
1455.7,0.0498416
1461.49,0.0481893
1467.27,0.0462328
1473.06,0.0440155
1478.84,0.0415715
1484.63,0.0387438
1490.41,0.0355845
1496.2,0.0323029
1501.99,0.0293963
1507.77,0.0260745
1513.56,0.02327024
1519.34,0.0204358
1525.13,0.0183098
1530.91,0.0162012
1536.7,0.0141206
1542.48,0.011937
1548.27,0.0104741
1554.05,0.0108802
1559.84,0.00818154
1565.62,0.005568967
1571.41,0.003906888
1577.2,0.003283241
1582.98,0.002044178
1588.77,0.00097184
1594.55,0.000472293
1599.37,9.12E-05