File: PhD Work/Raman Plotter_050524/Plot Data/UG Glasses/CaZn/JC_UG_CaZn4_5th_cut_bas_ther_vect_040624.csv
RamanShift,CaZn4
49.85,-2.70E-05
55.64,0.000218567
61.42,0.000541207
67.21,0.000604373
72.99,0.001033072
78.78,0.001079241
84.56,0.001266419
90.35,0.001514689
96.13,0.001546253
101.92,0.001552457
107.7,0.001834449
113.49,0.001683752
119.27,0.001783941
125.06,0.001861676
130.85,0.001736571
136.63,0.001819378
142.42,0.001731027
148.2,0.001565886
153.99,0.001698089
159.77,0.00157271
165.56,0.001507363
171.34,0.001582127
177.13,0.001484045
182.91,0.001527579
188.7,0.00151776
194.48,0.001494492
200.27,0.001505519
206.06,0.0016276
211.84,0.001709862
217.63,0.001813622
223.41,0.001888743
229.2,0.001972455
234.98,0.002130573
240.77,0.002179966
246.55,0.002412504
252.34,0.002508509
258.12,0.002616484
263.91,0.002820157
269.69,0.002772051
275.48,0.002932008
281.27,0.002851046
287.05,0.003035574
292.84,0.00315657
298.62,0.003442395
304.41,0.003581177
310.19,0.00376232
315.98,0.004080878
321.76,0.004143038
327.55,0.004484461
333.33,0.004896686
339.12,0.005465321
344.91,0.006111706
350.69,0.006970187
356.48,0.007714202
362.26,0.008567539
368.05,0.009268495
373.83,0.0100925
379.62,0.0109276
385.4,0.01133897
391.19,0.0120383
396.97,0.0127752
402.76,0.0129793
408.54,0.0135731
414.33,0.0136297
420.12,0.0136842
425.9,0.0133899
431.69,0.0133148
437.47,0.0130759
443.26,0.0124236
449.04,0.012562
454.83,0.0120772
460.61,0.0114307
466.4,0.011427
472.18,0.0109283
477.97,0.0109303
483.75,0.0109946
489.54,0.0103941
495.33,0.009835862
501.11,0.009226316
506.9,0.0088403
512.68,0.008482383
518.47,0.007848097
524.25,0.006686273
530.04,0.005714499
535.82,0.00534092
541.61,0.003900196
547.39,0.003357261
553.18,0.001734128
558.96,0.001420177
564.75,0.000180028
570.54,0.000123959
576.32,0.000259908
582.11,0.000621471
587.89,0.00132332
593.68,0.002588111
599.46,0.003603977
605.25,0.00461246
611.03,0.005941673
616.82,0.007480693
622.6,0.009002964
628.39,0.0103001
634.18,0.0120831
639.96,0.013521
645.75,0.0151041
651.53,0.0171029
657.32,0.0188381
663.1,0.0204946
668.89,0.0220018
674.67,0.0229947
680.46,0.0230304
686.24,0.0228087
692.03,0.0221315
697.81,0.0210775
703.6,0.0201305
709.39,0.0209392
715.17,0.0215846
720.96,0.0226178
726.74,0.0234187
732.53,0.0244777
738.31,0.0256595
744.1,0.0277851
749.88,0.0287796
755.67,0.0297647
761.45,0.0293395
767.24,0.02777977
773.02,0.02481515
778.81,0.0207169
784.6,0.0158624
790.38,0.0115518
796.17,0.007899803
801.95,0.004893956
807.74,0.003651086
813.52,0.002805857
819.31,0.003076188
825.09,0.003955781
830.88,0.004357501
836.66,0.00549872
842.45,0.006352831
848.23,0.006539354
854.02,0.006650658
859.81,0.006784909
865.59,0.006394574
871.38,0.005764567
877.16,0.004933112
882.95,0.003954565
888.73,0.003265541
894.52,0.002565258
900.3,0.003081292
906.09,0.003567675
911.87,0.005294032
917.66,0.007793136
923.45,0.009651307
929.23,0.0128472
935.02,0.0147341
940.8,0.01662557
946.59,0.018368
952.37,0.0193879
958.16,0.0200947
963.94,0.0211658
969.73,0.0207464
975.51,0.0212495
981.3,0.0209821
987.08,0.0205478
992.87,0.0202002
998.66,0.0186984
1004.44,0.016704
1010.23,0.01426803
1016.01,0.0122638
1021.8,0.0104168
1027.58,0.008856458
1033.37,0.007219819
1039.15,0.006395211
1044.94,0.004828072
1050.72,0.003718066
1056.51,0.003121436
1062.3,0.001667907
1068.08,0.001275887
1073.87,0.000387281
1079.65,0.000144955
1085.44,0.000936254
1091.22,0.001816703
1097.01,0.001659972
1102.79,0.002118763
1108.58,0.003027976
1114.36,0.004317253
1120.15,0.007401659
1125.93,0.009753632
1131.72,0.0116312
1137.51,0.0146029
1143.29,0.0176544
1149.08,0.0214161
1154.86,0.024738
1160.65,0.0274023
1166.43,0.0306256
1172.22,0.0327253
1178,0.03570216
1183.79,0.0379229
1189.57,0.0395982
1195.36,0.0404686
1201.14,0.0412826
1206.93,0.0422811
1212.72,0.043622
1218.5,0.0426747
1224.29,0.0432254
1230.07,0.043927
1235.86,0.0435031
1241.64,0.043539
1247.43,0.0434136
1253.21,0.0435846
1259,0.0433153
1264.78,0.0441148
1270.57,0.0449226
1276.35,0.04527713
1282.14,0.0459792
1287.93,0.0471541
1293.71,0.0489057
1299.5,0.0502531
1305.28,0.0506407
1311.07,0.0522548
1316.85,0.0541683
1322.64,0.0553722
1328.42,0.05673642
1334.21,0.0572133
1339.99,0.0581209
1345.78,0.0592778
1351.57,0.0591211
1357.35,0.0595106
1363.14,0.0604821
1368.92,0.0609435
1374.71,0.0607573
1380.49,0.0614434
1386.28,0.060239
1392.06,0.0595216
1397.85,0.0588345
1403.63,0.0572667
1409.42,0.05717425
1415.2,0.0556705
1420.99,0.0545842
1426.78,0.0532925
1432.56,0.0512138
1438.35,0.04989966
1444.13,0.0479154
1449.92,0.0461322
1455.7,0.0445105
1461.49,0.0432944
1467.27,0.0401028
1473.06,0.0380616
1478.84,0.0354661
1484.63,0.0326399
1490.41,0.0299133
1496.2,0.0266759
1501.99,0.0238583
1507.77,0.0214966
1513.56,0.0181913
1519.34,0.0164891
1525.13,0.0150082
1530.91,0.0123231
1536.7,0.0109559
1542.48,0.00945276
1548.27,0.008193766
1554.05,0.0107758
1559.84,0.006084091
1565.62,0.004229583
1571.41,0.002964238
1577.2,0.001905393
1582.98,0.002127166
1588.77,0.000815971
1594.55,0.001066277
1599.37,9.67E-06