File: PhD Work/Raman Plotter_050524/Plot Data/UG Glasses/CaZn/JC_UG_CaZn1_5th_cut_bas_ther_vect_040624.csv
RamanShift,CaZn1
49.85,-5.08E-06
55.64,0.000340715
61.42,0.00076005
67.21,0.000952885
72.99,0.001429285
78.78,0.001642083
84.56,0.001919586
90.35,0.002193697
96.13,0.002365683
101.92,0.002424253
107.7,0.002697265
113.49,0.002660714
119.27,0.002749697
125.06,0.002854215
130.85,0.002712049
136.63,0.002734645
142.42,0.002623366
148.2,0.002408668
153.99,0.002400458
159.77,0.002154036
165.56,0.001964108
171.34,0.001914673
177.13,0.00172153
182.91,0.001569138
188.7,0.00140722
194.48,0.001242074
200.27,0.001105722
206.06,0.001125055
211.84,0.001043762
217.63,0.000976672
223.41,0.000892274
229.2,0.000809357
234.98,0.000796917
240.77,0.00079303
246.55,0.000877853
252.34,0.000838202
258.12,0.00083365
263.91,0.00096739
269.69,0.000812109
275.48,0.000831316
281.27,0.000771838
287.05,0.000814143
292.84,0.000939094
298.62,0.001175123
304.41,0.001230075
310.19,0.001400537
315.98,0.001610208
321.76,0.001684916
327.55,0.001970495
333.33,0.002311828
339.12,0.002884658
344.91,0.003565687
350.69,0.004329146
356.48,0.005149252
362.26,0.005913487
368.05,0.00670665
373.83,0.007518903
379.62,0.008274869
385.4,0.008878933
391.19,0.00989628
396.97,0.0106888
402.76,0.0111593
408.54,0.01197422
414.33,0.0120435
420.12,0.0124116
425.9,0.0123278
431.69,0.01231625
437.47,0.0124177
443.26,0.0120203
449.04,0.0122482
454.83,0.0120878
460.61,0.0115951
466.4,0.0119015
472.18,0.0114512
477.97,0.0113909
483.75,0.0116309
489.54,0.0110378
495.33,0.0105981
501.11,0.0102135
506.9,0.01000208
512.68,0.009611546
518.47,0.009217715
524.25,0.008086641
530.04,0.00730417
535.82,0.006895336
541.61,0.005545363
547.39,0.004689992
553.18,0.00287193
558.96,0.002274643
564.75,0.000890491
570.54,0.000441546
576.32,0.000147177
582.11,0.000119151
587.89,0.000804664
593.68,0.001542841
599.46,0.002647936
605.25,0.003721006
611.03,0.00502841
616.82,0.006699371
622.6,0.008240971
628.39,0.009658335
634.18,0.0111427
639.96,0.0120891
645.75,0.012926
651.53,0.0140706
657.32,0.0145366
663.1,0.0154817
668.89,0.01650902
674.67,0.017274
680.46,0.0180852
686.24,0.01850443
692.03,0.0187089
697.81,0.01872508
703.6,0.0188317
709.39,0.0205082
715.17,0.0218391
720.96,0.0237219
726.74,0.02548543
732.53,0.02731994
738.31,0.0292058
744.1,0.0319023
749.88,0.0341179
755.67,0.0357396
761.45,0.036216
767.24,0.0351842
773.02,0.0314781
778.81,0.0263016
784.6,0.019726
790.38,0.0137219
796.17,0.008611877
801.95,0.005255337
807.74,0.003832697
813.52,0.003426294
819.31,0.004718682
825.09,0.006873426
830.88,0.008226136
836.66,0.0105961
842.45,0.01193661
848.23,0.01257956
854.02,0.0135032
859.81,0.0137658
865.59,0.0140838
871.38,0.01358
877.16,0.0131978
882.95,0.0115155
888.73,0.0102271
894.52,0.009503804
900.3,0.0100198
906.09,0.0108566
911.87,0.012896
917.66,0.016376
923.45,0.0199934
929.23,0.0244637
935.02,0.0280332
940.8,0.0320335
946.59,0.0353495
952.37,0.0382833
958.16,0.0403748
963.94,0.0418026
969.73,0.0423463
975.51,0.0431056
981.3,0.0428479
987.08,0.042013
992.87,0.040464
998.66,0.0370109
1004.44,0.0336597
1010.23,0.0289819
1016.01,0.025007
1021.8,0.0209029
1027.58,0.0176484
1033.37,0.014412
1039.15,0.0123325
1044.94,0.009544597
1050.72,0.007663673
1056.51,0.006021801
1062.3,0.004445994
1068.08,0.003413487
1073.87,0.002600816
1079.65,0.000952444
1085.44,0.000937012
1091.22,-1.08E-06
1097.01,0.000207019
1102.79,0.000555887
1108.58,0.000577469
1114.36,0.001157251
1120.15,0.002570038
1125.93,0.004058272
1131.72,0.004940772
1137.51,0.00665909
1143.29,0.009016207
1149.08,0.0113111
1154.86,0.0134368
1160.65,0.0155309
1166.43,0.01807664
1172.22,0.0199107
1178,0.0218569
1183.79,0.0235318
1189.57,0.0252385
1195.36,0.026124
1201.14,0.0270865
1206.93,0.02844896
1212.72,0.0296717
1218.5,0.0295196
1224.29,0.0303522
1230.07,0.0311109
1235.86,0.0315784
1241.64,0.0320048
1247.43,0.0324094
1253.21,0.03300492
1259,0.0328758
1264.78,0.0334257
1270.57,0.0341063
1276.35,0.0346404
1282.14,0.0348053
1287.93,0.0359046
1293.71,0.0369809
1299.5,0.0381026
1305.28,0.038401
1311.07,0.0391416
1316.85,0.041023
1322.64,0.0422778
1328.42,0.0432997
1334.21,0.0450074
1339.99,0.0460031
1345.78,0.0471368
1351.57,0.0491902
1357.35,0.0501556
1363.14,0.052122
1368.92,0.0531175
1374.71,0.0543859
1380.49,0.0558423
1386.28,0.0564098
1392.06,0.0575538
1397.85,0.0582219
1403.63,0.0581568
1409.42,0.05918611
1415.2,0.0587249
1420.99,0.0592663
1426.78,0.0592034
1432.56,0.0590672
1438.35,0.0587332
1444.13,0.0584628
1449.92,0.05765324
1455.7,0.0573219
1461.49,0.0559842
1467.27,0.0545098
1473.06,0.0528092
1478.84,0.05058743
1484.63,0.0475456
1490.41,0.044086
1496.2,0.0401541
1501.99,0.03664084
1507.77,0.0326914
1513.56,0.028833
1519.34,0.0255273
1525.13,0.0230868
1530.91,0.0196475
1536.7,0.0174641
1542.48,0.0146765
1548.27,0.0125212
1554.05,0.0123542
1559.84,0.00900153
1565.62,0.006704173
1571.41,0.004935399
1577.2,0.003712212
1582.98,0.002388017
1588.77,0.001237238
1594.55,0.000897384
1599.37,-3.78E-05