File: PhD Work/Raman Plotter_050524/Plot Data/UG Glasses/CaZn/JC_UG_CaZn3_5th_cut_bas_ther_vect_040624.csv
RamanShift,CaZn3
49.85,-0.000250548
55.64,-5.32E-05
61.42,0.000253616
67.21,0.000296493
72.99,0.000648639
78.78,0.000745568
84.56,0.000914179
90.35,0.001066933
96.13,0.001180947
101.92,0.001157218
107.7,0.001380788
113.49,0.001286863
119.27,0.001363196
125.06,0.001431574
130.85,0.001317332
136.63,0.001329735
142.42,0.001304665
148.2,0.001150002
153.99,0.001212601
159.77,0.001065674
165.56,0.001007294
171.34,0.001033901
177.13,0.000938612
182.91,0.000905148
188.7,0.000904377
194.48,0.000845013
200.27,0.00080524
206.06,0.000929798
211.84,0.000956926
217.63,0.001049994
223.41,0.001086805
229.2,0.001114941
234.98,0.001232535
240.77,0.001296238
246.55,0.001485832
252.34,0.001564376
258.12,0.001681752
263.91,0.00187088
269.69,0.00183325
275.48,0.001904352
281.27,0.001928913
287.05,0.002040913
292.84,0.002203256
298.62,0.002439542
304.41,0.002543996
310.19,0.002762649
315.98,0.003005529
321.76,0.003140908
327.55,0.00350119
333.33,0.003887816
339.12,0.004466572
344.91,0.005148116
350.69,0.005953273
356.48,0.006770665
362.26,0.007624467
368.05,0.008438708
373.83,0.009283677
379.62,0.0100844
385.4,0.01073108
391.19,0.0115652
396.97,0.0122733
402.76,0.0126279
408.54,0.01323959
414.33,0.0132324
420.12,0.0133673
425.9,0.0130644
431.69,0.0129308
437.47,0.0127833
443.26,0.0122745
449.04,0.0121955
454.83,0.0118219
460.61,0.01136913
466.4,0.0113772
472.18,0.0109576
477.97,0.0108383
483.75,0.0109193
489.54,0.0103506
495.33,0.009843513
501.11,0.00939721
506.9,0.009004453
512.68,0.008489884
518.47,0.007896787
524.25,0.006872055
530.04,0.006105666
535.82,0.005547716
541.61,0.00433926
547.39,0.003544212
553.18,0.002062367
558.96,0.001510097
564.75,0.000420475
570.54,0.000204732
576.32,0.000147101
582.11,0.000334353
587.89,0.001132208
593.68,0.002075393
599.46,0.003136939
605.25,0.004314751
611.03,0.005585474
616.82,0.00708914
622.6,0.008364552
628.39,0.009858248
634.18,0.0114314
639.96,0.012882
645.75,0.0142749
651.53,0.0159875
657.32,0.0173277
663.1,0.0189033
668.89,0.0203777
674.67,0.021066
680.46,0.02145369
686.24,0.0211738
692.03,0.0205204
697.81,0.0196977
703.6,0.0188499
709.39,0.0195468
715.17,0.0200662
720.96,0.0210295
726.74,0.0223133
732.53,0.02354091
738.31,0.0250246
744.1,0.0268368
749.88,0.0284458
755.67,0.0292852
761.45,0.0291632
767.24,0.0277496
773.02,0.0246248
778.81,0.0204047
784.6,0.0152299
790.38,0.0106667
796.17,0.00675979
801.95,0.003845577
807.74,0.002386015
813.52,0.00167939
819.31,0.002080386
825.09,0.003057496
830.88,0.003567578
836.66,0.005043186
842.45,0.005803388
848.23,0.00606127
854.02,0.006434904
859.81,0.006304292
865.59,0.006417381
871.38,0.005819012
877.16,0.005260262
882.95,0.004108062
888.73,0.003409296
894.52,0.002970173
900.3,0.003548544
906.09,0.004586643
911.87,0.006447593
917.66,0.009293976
923.45,0.0117711
929.23,0.0146911
935.02,0.0169829
940.8,0.0194859
946.59,0.0214351
952.37,0.023075
958.16,0.0241379
963.94,0.0247043
969.73,0.0250433
975.51,0.0252664
981.3,0.025044
987.08,0.0248143
992.87,0.0241041
998.66,0.02210135
1004.44,0.0202313
1010.23,0.0173512
1016.01,0.0151831
1021.8,0.0126646
1027.58,0.0107445
1033.37,0.008972184
1039.15,0.007766623
1044.94,0.006222308
1050.72,0.004940846
1056.51,0.003721976
1062.3,0.002739321
1068.08,0.002028009
1073.87,0.00137722
1079.65,0.000540179
1085.44,0.000482565
1091.22,6.65E-05
1097.01,0.000792476
1102.79,0.001576392
1108.58,0.00257565
1114.36,0.003971097
1120.15,0.006208215
1125.93,0.008671003
1131.72,0.01113829
1137.51,0.0139592
1143.29,0.0174528
1149.08,0.0208188
1154.86,0.02422524
1160.65,0.027294
1166.43,0.0305189
1172.22,0.033109
1178,0.0357145
1183.79,0.0377909
1189.57,0.0394779
1195.36,0.04069952
1201.14,0.0415571
1206.93,0.0426312
1212.72,0.0432857
1218.5,0.0431307
1224.29,0.0435177
1230.07,0.04354
1235.86,0.0433642
1241.64,0.0434356
1247.43,0.0433146
1253.21,0.043298
1259,0.0432774
1264.78,0.04390554
1270.57,0.0445077
1276.35,0.0450377
1282.14,0.0453514
1287.93,0.0465996
1293.71,0.0479348
1299.5,0.0492743
1305.28,0.0500608
1311.07,0.0510005
1316.85,0.0527057
1322.64,0.0539707
1328.42,0.0546524
1334.21,0.0558873
1339.99,0.0565397
1345.78,0.0569382
1351.57,0.0579849
1357.35,0.0583146
1363.14,0.058767
1368.92,0.058965
1374.71,0.059319
1380.49,0.0592896
1386.28,0.0588294
1392.06,0.0586883
1397.85,0.05838968
1403.63,0.0572583
1409.42,0.0569924
1415.2,0.0557046
1420.99,0.0551953
1426.78,0.053668
1432.56,0.0528027
1438.35,0.0513624
1444.13,0.0499385
1449.92,0.04811418
1455.7,0.0464729
1461.49,0.0445058
1467.27,0.04245184
1473.06,0.0402646
1478.84,0.03786916
1484.63,0.035015
1490.41,0.0318888
1496.2,0.0288298
1501.99,0.0260443
1507.77,0.0230878
1513.56,0.0205791
1519.34,0.0180336
1525.13,0.0159551
1530.91,0.01395
1536.7,0.0123076
1542.48,0.01028043
1548.27,0.00891134
1554.05,0.009255581
1559.84,0.007120403
1565.62,0.004716796
1571.41,0.00329896
1577.2,0.002573659
1582.98,0.001610916
1588.77,0.000688312
1594.55,0.000393699
1599.37,3.92E-05