File: Year 3/Mossbauer/XRD_CaZn 1V2_raw.csv
Angle,Intensity
5.00897,2713
5.33722,2839
5.66548,3001
5.99374,3171
6.32199,3349
6.65025,3422
6.97851,3640
7.30676,3778
7.63502,3855
7.96328,3934
8.29154,4106
8.61979,4243
8.94805,4523
9.27631,4651
9.60456,4555
9.93282,4867
10.2611,4740
10.5893,4948
10.9176,5027
11.2458,5128
11.5741,5121
11.9024,5277
12.2306,5268
12.5589,5447
12.8871,5409
13.2154,5562
13.5436,5356
13.8719,5631
14.2002,5766
14.5284,5718
14.8567,5677
15.1849,5673
15.5132,5680
15.8414,5552
16.1697,5779
16.498,5509
16.8262,5597
17.1545,5537
17.4827,5543
17.811,5450
18.1392,5348
18.4675,5433
18.7958,5347
19.124,5250
19.4523,5410
19.7805,5319
20.1088,5182
20.437,5074
20.7653,5135
21.0936,4959
21.4218,5164
21.7501,5138
22.0783,4890
22.4066,4972
22.7348,5018
23.0631,4964
23.3914,4882
23.7196,4803
24.0479,4791
24.3761,4925
24.7044,4866
25.0326,4721
25.3609,4800
25.6892,4780
26.0174,4719
26.3457,4714
26.6739,4625
27.0022,4563
27.3304,4656
27.6587,4592
27.987,4603
28.3152,4542
28.6435,4597
28.9717,4679
29.3,4495
29.6282,4586
29.9565,4675
30.2848,4545
30.613,4547
30.9413,4590
31.2695,4529
31.5978,4692
31.926,4633
32.2543,4490
32.5826,4524
32.9108,4502
33.2391,4623
33.5673,4609
33.8956,4633
34.2238,4581
34.5521,4493
34.8804,4454
35.2086,4588
35.5369,4593
35.8651,4683
36.1934,4546
36.5216,4560
36.8499,4492
37.1782,4415
37.5064,4412
37.8347,4301
38.1629,4305
38.4912,4287
38.8194,4272
39.1477,4358
39.476,4090
39.8042,4094
40.1325,4052
40.4607,4107
40.789,3925
41.1172,3913
41.4455,3972
41.7738,3918
42.102,3860
42.4303,3822
42.7585,3711
43.0868,3788
43.415,3693
43.7433,3585
44.0716,3564
44.3998,3430
44.7281,3424
45.0563,3453
45.3846,3453
45.7128,3395
46.0411,3249
46.3694,3358
46.6976,3420
47.0259,3268
47.3541,3352
47.6824,3377
48.0106,3408
48.3389,3320
48.6672,3243
48.9954,3307
49.3237,3285
49.6519,3244
49.9802,3297
50.3084,3250
50.6367,3166
50.965,3215
51.2932,3197
51.6215,3155
51.9497,3094
52.278,3272
52.6062,3078
52.9345,3109
53.2628,3167
53.591,3171
53.9193,3009
54.2475,3118
54.5758,3055
54.904,3025
55.2323,3041
55.5606,2845
55.8888,2947
56.2171,2965
56.5453,2944
56.8736,3004
57.2018,2883
57.5301,2895
57.8584,2824
58.1866,2830
58.5149,2922
58.8431,2839
59.1714,2883
59.4996,2757
59.8279,2769
60.1562,2803
60.4844,2845
60.8127,2732
61.1409,2789
61.4692,2626
61.7974,2697
62.1257,2627
62.454,2612
62.7822,2688
63.1105,2675
63.4387,2641
63.767,2635
64.0952,2721
64.4235,2579
64.7518,2552
65.08,2505
65.4083,2544
65.7365,2483
66.0648,2482
66.393,2527
66.7213,2550
67.0496,2533
67.3778,2515
67.7061,2466
68.0343,2421
68.3626,2462
68.6908,2515
69.0191,2490
69.3474,2511
69.6756,2414
70.0039,2393
70.3321,2493
70.6604,2389
70.9886,2458
71.3169,2513
71.6451,2371
71.9734,2338
72.3017,2327
72.6299,2261
72.9582,2278
73.2864,2322
73.6147,2335
73.9429,2381
74.2712,2275
74.5995,2315
74.9277,2273
75.256,2280
75.5842,2308
75.9125,2245
76.2407,2158
76.569,2234
76.8973,2226
77.2255,2244
77.5538,2188
77.882,2189
78.2103,2251
78.5385,2235
78.8668,2296
79.1951,2166
79.5233,2145
79.8516,2163
80.1798,2214
80.5081,2188
80.8363,2154
81.1646,2092
81.4929,2112
81.8211,2156
82.1494,2157
82.4776,2070
82.80589,2130
83.1341,2111
83.4624,2122
83.7907,2114
84.1189,2111
84.4472,2131
84.7754,2039
85.1037,2131
85.4319,2030
85.7602,2120
86.0885,2056
86.4167,2150
86.745,2064
87.0732,2103
87.4015,2068
87.7297,2077
88.058,2074
88.3863,2122
88.7145,2044
89.0428,2098
89.371,2061
89.6993,2072
90.0275,2051
90.3558,2059
90.6841,2072
91.0123,2124
91.3406,2051
91.6688,1987
91.9971,2076
92.3253,1995
92.6536,2057
92.9819,2044
93.3101,2059
93.6384,2006
93.9666,2037
94.2949,2023
94.6231,2051
94.9514,2019
95.2797,2041
95.6079,1996
95.9362,2032
96.2644,2067
96.5927,2015
96.9209,1995
97.2492,2042
97.5775,1999
97.9057,1990
98.234,2061
98.5622,2010
98.8905,2086
99.2187,2044
99.547,1952
99.8753,2008
99.9934,2026