File: Year 3/Mossbauer/XRD_SLS1_raw.csv
Angle,Intensity
5.00897,2789
5.33722,2859
5.66548,3157
5.99374,3324
6.32199,3497
6.65025,3768
6.97851,3986
7.30676,4115
7.63502,4238
7.96328,4447
8.29154,4466
8.61979,4522
8.94805,4994
9.27631,4862
9.60456,5035
9.93282,5072
10.2611,5277
10.5893,5466
10.9176,5374
11.2458,5418
11.5741,5574
11.9024,5590
12.2306,5640
12.5589,5610
12.8871,5613
13.2154,5649
13.5436,5599
13.8719,5891
14.2002,5784
14.5284,5887
14.8567,5796
15.1849,5707
15.5132,5695
15.8414,5870
16.1697,5692
16.498,5806
16.8262,5566
17.1545,5671
17.4827,5713
17.811,5593
18.1392,5513
18.4675,5547
18.7958,5431
19.124,5386
19.4523,5404
19.7805,5405
20.1088,5444
20.437,5246
20.7653,5450
21.0936,5428
21.4218,5286
21.7501,5301
22.0783,5385
22.4066,5382
22.7348,5316
23.0631,5457
23.3914,5467
23.7196,5369
24.0479,5381
24.3761,5446
24.7044,5362
25.0326,5350
25.3609,5474
25.6892,5392
26.0174,5321
26.3457,5231
26.6739,5346
27.0022,5233
27.3304,5414
27.6587,5212
27.987,5193
28.3152,5204
28.6435,5159
28.9717,5055
29.3,5061
29.6282,4906
29.9565,4934
30.2848,4908
30.613,4780
30.9413,4878
31.2695,4779
31.5978,4634
31.926,4537
32.2543,4540
32.5826,4396
32.9108,4392
33.2391,4356
33.5673,4308
33.8956,4241
34.2238,4252
34.5521,4023
34.8804,4014
35.2086,4042
35.5369,3965
35.8651,4052
36.1934,3924
36.5216,3940
36.8499,3794
37.1782,3748
37.5064,3714
37.8347,3637
38.1629,3619
38.4912,3423
38.8194,3333
39.1477,3341
39.476,3461
39.8042,3270
40.1325,3153
40.4607,3242
40.789,3193
41.1172,3152
41.4455,3110
41.7738,3043
42.102,2894
42.4303,2995
42.7585,2767
43.0868,2742
43.415,2799
43.7433,2681
44.0716,2749
44.3998,2760
44.7281,2477
45.0563,2622
45.3846,2495
45.7128,2511
46.0411,2522
46.3694,2501
46.6976,2506
47.0259,2502
47.3541,2608
47.6824,2504
48.0106,2432
48.3389,2438
48.6672,2420
48.9954,2322
49.3237,2444
49.6519,2372
49.9802,2420
50.3084,2317
50.6367,2322
50.965,2337
51.2932,2292
51.6215,2263
51.9497,2259
52.278,2262
52.6062,2254
52.9345,2179
53.2628,2232
53.591,2267
53.9193,2191
54.2475,2086
54.5758,2195
54.904,2196
55.2323,2101
55.5606,2022
55.8888,2108
56.2171,2044
56.5453,2097
56.8736,2092
57.2018,1923
57.5301,2000
57.8584,2026
58.1866,1971
58.5149,2072
58.8431,1998
59.1714,1912
59.4996,1970
59.8279,1980
60.1562,1996
60.4844,1988
60.8127,1958
61.1409,1886
61.4692,1890
61.7974,1938
62.1257,1910
62.454,1835
62.7822,1852
63.1105,1862
63.4387,1880
63.767,1855
64.0952,1850
64.4235,1921
64.7518,1799
65.08,1828
65.4083,1796
65.7365,1864
66.0648,1871
66.393,1787
66.7213,1764
67.0496,1747
67.3778,1786
67.7061,1737
68.0343,1754
68.3626,1794
68.6908,1705
69.0191,1746
69.3474,1711
69.6756,1756
70.0039,1768
70.3321,1774
70.6604,1737
70.9886,1715
71.3169,1748
71.6451,1691
71.9734,1821
72.3017,1752
72.6299,1770
72.9582,1746
73.2864,1697
73.6147,1687
73.9429,1686
74.2712,1678
74.5995,1748
74.9277,1679
75.256,1706
75.5842,1734
75.9125,1675
76.2407,1691
76.569,1635
76.8973,1662
77.2255,1651
77.5538,1647
77.882,1675
78.2103,1640
78.5385,1590
78.8668,1614
79.1951,1620
79.5233,1610
79.8516,1629
80.1798,1667
80.5081,1698
80.8363,1541
81.1646,1586
81.4929,1538
81.8211,1602
82.1494,1559
82.4776,1595
82.80589,1537
83.1341,1543
83.4624,1591
83.7907,1613
84.1189,1563
84.4472,1592
84.7754,1614
85.1037,1574
85.4319,1565
85.7602,1593
86.0885,1567
86.4167,1539
86.745,1538
87.0732,1514
87.4015,1572
87.7297,1565
88.058,1614
88.3863,1532
88.7145,1496
89.0428,1468
89.371,1462
89.6993,1570
90.0275,1499
90.3558,1540
90.6841,1480
91.0123,1501
91.3406,1430
91.6688,1496
91.9971,1509
92.3253,1460
92.6536,1383
92.9819,1474
93.3101,1470
93.6384,1421
93.9666,1463
94.2949,1480
94.6231,1413
94.9514,1457
95.2797,1415
95.6079,1433
95.9362,1480
96.2644,1391
96.5927,1448
96.9209,1520
97.2492,1444
97.5775,1462
97.9057,1442
98.234,1431
98.5622,1424
98.8905,1437
99.2187,1419
99.547,1377
99.8753,1404
99.9934,1403