File: Year 3/Mossbauer/XRD_NBS1_raw.csv
Angle,Intensity
5.00897,2828
5.33722,2936
5.66548,3226
5.99374,3429
6.32199,3598
6.65025,3878
6.97851,3973
7.30676,4200
7.63502,4416
7.96328,4603
8.29154,4775
8.61979,5003
8.94805,5220
9.27631,5180
9.60456,5400
9.93282,5516
10.2611,5519
10.5893,5717
10.9176,5849
11.2458,5922
11.5741,5940
11.9024,6282
12.2306,6217
12.5589,6306
12.8871,6313
13.2154,6569
13.5436,6627
13.8719,6593
14.2002,6501
14.5284,6866
14.8567,6778
15.1849,6720
15.5132,6781
15.8414,6663
16.1697,6702
16.498,6757
16.8262,6686
17.1545,6588
17.4827,6710
17.811,6489
18.1392,6660
18.4675,6461
18.7958,6456
19.124,6603
19.4523,6391
19.7805,6392
20.1088,6431
20.437,6488
20.7653,6419
21.0936,6388
21.4218,6199
21.7501,6261
22.0783,6288
22.4066,6157
22.7348,6246
23.0631,6066
23.3914,6068
23.7196,5970
24.0479,5829
24.3761,5813
24.7044,5863
25.0326,5928
25.3609,5622
25.6892,5771
26.0174,5842
26.3457,5820
26.6739,5661
27.0022,5688
27.3304,5575
27.6587,5571
27.987,5516
28.3152,5460
28.6435,5505
28.9717,5521
29.3,5604
29.6282,5455
29.9565,5506
30.2848,5501
30.613,5484
30.9413,5460
31.2695,5357
31.5978,5359
31.926,5475
32.2543,5352
32.5826,5220
32.9108,5351
33.2391,5269
33.5673,5412
33.8956,5348
34.2238,5295
34.5521,5263
34.8804,5293
35.2086,5417
35.5369,5184
35.8651,5268
36.1934,5103
36.5216,5044
36.8499,5150
37.1782,5009
37.5064,5140
37.8347,4987
38.1629,4864
38.4912,4798
38.8194,4662
39.1477,4653
39.476,4609
39.8042,4375
40.1325,4399
40.4607,4379
40.789,4279
41.1172,4105
41.4455,4010
41.7738,4027
42.102,4009
42.4303,3922
42.7585,3745
43.0868,3733
43.415,3763
43.7433,3580
44.0716,3496
44.3998,3656
44.7281,3513
45.0563,3384
45.3846,3544
45.7128,3379
46.0411,3398
46.3694,3314
46.6976,3234
47.0259,3180
47.3541,3376
47.6824,3204
48.0106,3282
48.3389,3259
48.6672,3271
48.9954,3135
49.3237,3229
49.6519,3313
49.9802,3284
50.3084,3190
50.6367,3156
50.965,3153
51.2932,3109
51.6215,3227
51.9497,3108
52.278,3103
52.6062,3091
52.9345,2990
53.2628,3030
53.591,3055
53.9193,2942
54.2475,2906
54.5758,3034
54.904,3000
55.2323,2846
55.5606,2892
55.8888,2911
56.2171,2784
56.5453,2801
56.8736,2798
57.2018,2704
57.5301,2807
57.8584,2704
58.1866,2711
58.5149,2657
58.8431,2611
59.1714,2616
59.4996,2566
59.8279,2563
60.1562,2716
60.4844,2663
60.8127,2530
61.1409,2561
61.4692,2563
61.7974,2486
62.1257,2531
62.454,2551
62.7822,2545
63.1105,2489
63.4387,2514
63.767,2504
64.0952,2471
64.4235,2467
64.7518,2477
65.08,2363
65.4083,2492
65.7365,2477
66.0648,2432
66.393,2438
66.7213,2496
67.0496,2345
67.3778,2294
67.7061,2425
68.0343,2369
68.3626,2343
68.6908,2423
69.0191,2344
69.3474,2277
69.6756,2267
70.0039,2316
70.3321,2355
70.6604,2298
70.9886,2329
71.3169,2208
71.6451,2207
71.9734,2314
72.3017,2234
72.6299,2281
72.9582,2179
73.2864,2212
73.6147,2280
73.9429,2322
74.2712,2271
74.5995,2295
74.9277,2250
75.256,2244
75.5842,2205
75.9125,2228
76.2407,2144
76.569,2192
76.8973,2244
77.2255,2200
77.5538,2069
77.882,2169
78.2103,2190
78.5385,2200
78.8668,2140
79.1951,2065
79.5233,2144
79.8516,2158
80.1798,2021
80.5081,2151
80.8363,2073
81.1646,2132
81.4929,2106
81.8211,2048
82.1494,1913
82.4776,2015
82.80589,1982
83.1341,2016
83.4624,2012
83.7907,1939
84.1189,1952
84.4472,2096
84.7754,2012
85.1037,1960
85.4319,2036
85.7602,1977
86.0885,2021
86.4167,1987
86.745,2027
87.0732,1983
87.4015,1958
87.7297,2043
88.058,1981
88.3863,1907
88.7145,1972
89.0428,2060
89.371,2042
89.6993,1923
90.0275,1966
90.3558,1971
90.6841,1953
91.0123,1950
91.3406,1983
91.6688,1951
91.9971,1970
92.3253,1937
92.6536,1928
92.9819,1922
93.3101,1934
93.6384,1936
93.9666,1900
94.2949,1911
94.6231,1865
94.9514,1920
95.2797,1942
95.6079,1893
95.9362,1895
96.2644,1899
96.5927,1979
96.9209,1831
97.2492,1974
97.5775,1894
97.9057,1898
98.234,1943
98.5622,1821
98.8905,1917
99.2187,1876
99.547,1923
99.8753,1888
99.9934,1885