File: Year 3/Mossbauer/XRD_CaZn 4V2_raw.csv
Angle,Intensity
5.00897,3049
5.33722,3087
5.66548,3286
5.99374,3427
6.32199,3553
6.65025,3690
6.97851,3834
7.30676,4030
7.63502,4218
7.96328,4238
8.29154,4419
8.61979,4754
8.94805,4750
9.27631,5062
9.60456,5004
9.93282,5193
10.2611,5299
10.5893,5219
10.9176,5506
11.2458,5761
11.5741,5669
11.9024,5765
12.2306,5800
12.5589,5761
12.8871,6028
13.2154,6105
13.5436,6122
13.8719,6277
14.2002,6319
14.5284,6233
14.8567,6355
15.1849,6387
15.5132,6550
15.8414,6578
16.1697,6432
16.498,6397
16.8262,6290
17.1545,6396
17.4827,6354
17.811,6333
18.1392,6213
18.4675,6253
18.7958,6167
19.124,6074
19.4523,6033
19.7805,6004
20.1088,5849
20.437,6088
20.7653,5955
21.0936,6013
21.4218,5839
21.7501,5754
22.0783,5835
22.4066,5855
22.7348,5730
23.0631,5725
23.3914,5663
23.7196,5803
24.0479,5720
24.3761,5808
24.7044,5796
25.0326,5637
25.3609,5532
25.6892,5621
26.0174,5415
26.3457,5673
26.6739,5614
27.0022,5604
27.3304,5613
27.6587,5606
27.987,5604
28.3152,5522
28.6435,5338
28.9717,5481
29.3,5476
29.6282,5403
29.9565,5554
30.2848,5388
30.613,5378
30.9413,5451
31.2695,5353
31.5978,5428
31.926,5486
32.2543,5656
32.5826,5287
32.9108,5444
33.2391,5460
33.5673,5497
33.8956,5555
34.2238,5210
34.5521,5357
34.8804,5521
35.2086,5574
35.5369,5433
35.8651,5611
36.1934,5472
36.5216,5548
36.8499,5301
37.1782,5497
37.5064,5384
37.8347,5339
38.1629,5283
38.4912,5159
38.8194,5181
39.1477,5260
39.476,5170
39.8042,5096
40.1325,5182
40.4607,4940
40.789,4937
41.1172,4989
41.4455,5017
41.7738,4908
42.102,4725
42.4303,4730
42.7585,4551
43.0868,4669
43.415,4590
43.7433,4487
44.0716,4529
44.3998,4424
44.7281,4387
45.0563,4327
45.3846,4305
45.7128,4375
46.0411,4226
46.3694,4155
46.6976,4204
47.0259,4211
47.3541,4285
47.6824,4164
48.0106,4079
48.3389,4046
48.6672,4119
48.9954,4160
49.3237,4071
49.6519,4139
49.9802,4195
50.3084,4190
50.6367,4181
50.965,4089
51.2932,4100
51.6215,4113
51.9497,4063
52.278,4191
52.6062,4040
52.9345,4094
53.2628,4007
53.591,3988
53.9193,4001
54.2475,3992
54.5758,3984
54.904,3834
55.2323,3919
55.5606,3935
55.8888,3983
56.2171,3862
56.5453,3982
56.8736,3915
57.2018,3899
57.5301,3791
57.8584,3857
58.1866,3915
58.5149,3848
58.8431,3867
59.1714,3823
59.4996,3839
59.8279,3782
60.1562,3807
60.4844,3692
60.8127,3662
61.1409,3691
61.4692,3649
61.7974,3701
62.1257,3795
62.454,3609
62.7822,3698
63.1105,3784
63.4387,3738
63.767,3553
64.0952,3641
64.4235,3646
64.7518,3592
65.08,3638
65.4083,3615
65.7365,3522
66.0648,3477
66.393,3524
66.7213,3496
67.0496,3575
67.3778,3522
67.7061,3520
68.0343,3478
68.3626,3507
68.6908,3372
69.0191,3556
69.3474,3378
69.6756,3434
70.0039,3392
70.3321,3368
70.6604,3344
70.9886,3308
71.3169,3462
71.6451,3342
71.9734,3360
72.3017,3312
72.6299,3236
72.9582,3331
73.2864,3290
73.6147,3354
73.9429,3366
74.2712,3367
74.5995,3200
74.9277,3253
75.256,3400
75.5842,3222
75.9125,3153
76.2407,3274
76.569,3255
76.8973,3267
77.2255,3159
77.5538,3248
77.882,3162
78.2103,3130
78.5385,3193
78.8668,3145
79.1951,3153
79.5233,3231
79.8516,3272
80.1798,3132
80.5081,3075
80.8363,3149
81.1646,3018
81.4929,3125
81.8211,3176
82.1494,3140
82.4776,3070
82.80589,2964
83.1341,3023
83.4624,3076
83.7907,2995
84.1189,2965
84.4472,3037
84.7754,2997
85.1037,2979
85.4319,2866
85.7602,3036
86.0885,3012
86.4167,3015
86.745,2928
87.0732,2972
87.4015,2932
87.7297,2925
88.058,2883
88.3863,2901
88.7145,3104
89.0428,2993
89.371,2950
89.6993,2968
90.0275,2830
90.3558,2853
90.6841,3094
91.0123,2921
91.3406,2934
91.6688,2947
91.9971,2972
92.3253,2982
92.6536,3086
92.9819,2888
93.3101,2909
93.6384,2900
93.9666,2950
94.2949,2926
94.6231,2899
94.9514,2958
95.2797,2982
95.6079,3111
95.9362,2933
96.2644,3010
96.5927,2946
96.9209,3030
97.2492,2886
97.5775,2902
97.9057,2936
98.234,2916
98.5622,3047
98.8905,2879
99.2187,2826
99.547,2891
99.8753,2986
99.9934,2920