File: Year 3/Mossbauer/XRD_SLS4_raw.csv
Angle,Intensity
5.00897,3058
5.33722,3293
5.66548,3373
5.99374,3662
6.32199,3993
6.65025,4047
6.97851,4257
7.30676,4407
7.63502,4659
7.96328,4642
8.29154,4933
8.61979,5023
8.94805,5265
9.27631,5266
9.60456,5483
9.93282,5642
10.2611,5595
10.5893,5819
10.9176,5900
11.2458,6001
11.5741,6121
11.9024,5963
12.2306,6158
12.5589,6132
12.8871,6304
13.2154,6366
13.5436,6246
13.8719,6234
14.2002,6260
14.5284,6389
14.8567,6380
15.1849,6580
15.5132,6615
15.8414,6496
16.1697,6507
16.498,6493
16.8262,6493
17.1545,6461
17.4827,6457
17.811,6347
18.1392,6172
18.4675,6150
18.7958,6168
19.124,6280
19.4523,6185
19.7805,6181
20.1088,6171
20.437,6132
20.7653,6238
21.0936,6155
21.4218,6213
21.7501,6081
22.0783,6198
22.4066,6356
22.7348,6224
23.0631,6235
23.3914,6402
23.7196,6407
24.0479,6224
24.3761,6410
24.7044,6313
25.0326,6284
25.3609,6338
25.6892,6293
26.0174,6223
26.3457,6221
26.6739,6270
27.0022,6315
27.3304,6239
27.6587,6227
27.987,6153
28.3152,6231
28.6435,6238
28.9717,6132
29.3,6228
29.6282,6037
29.9565,5942
30.2848,5748
30.613,5988
30.9413,6058
31.2695,5883
31.5978,5737
31.926,5630
32.2543,5818
32.5826,5652
32.9108,5501
33.2391,5488
33.5673,5402
33.8956,5395
34.2238,5382
34.5521,5284
34.8804,5283
35.2086,5154
35.5369,5215
35.8651,5113
36.1934,5034
36.5216,5041
36.8499,5098
37.1782,4967
37.5064,4895
37.8347,4736
38.1629,4749
38.4912,4698
38.8194,4624
39.1477,4697
39.476,4656
39.8042,4434
40.1325,4453
40.4607,4498
40.789,4474
41.1172,4324
41.4455,4287
41.7738,4311
42.102,4211
42.4303,4210
42.7585,4174
43.0868,3976
43.415,3850
43.7433,3993
44.0716,3886
44.3998,3804
44.7281,3881
45.0563,3817
45.3846,3730
45.7128,3835
46.0411,3620
46.3694,3780
46.6976,3807
47.0259,3779
47.3541,3656
47.6824,3717
48.0106,3703
48.3389,3688
48.6672,3599
48.9954,3635
49.3237,3683
49.6519,3574
49.9802,3583
50.3084,3660
50.6367,3561
50.965,3575
51.2932,3512
51.6215,3577
51.9497,3460
52.278,3453
52.6062,3484
52.9345,3444
53.2628,3395
53.591,3420
53.9193,3452
54.2475,3329
54.5758,3363
54.904,3377
55.2323,3324
55.5606,3352
55.8888,3293
56.2171,3371
56.5453,3470
56.8736,3416
57.2018,3277
57.5301,3346
57.8584,3251
58.1866,3201
58.5149,3289
58.8431,3360
59.1714,3217
59.4996,3240
59.8279,3140
60.1562,3136
60.4844,3120
60.8127,3249
61.1409,2995
61.4692,3046
61.7974,3006
62.1257,3154
62.454,3025
62.7822,3142
63.1105,3200
63.4387,3103
63.767,3152
64.0952,3088
64.4235,3133
64.7518,3014
65.08,3120
65.4083,3178
65.7365,3084
66.0648,3050
66.393,3068
66.7213,3130
67.0496,2988
67.3778,3110
67.7061,2938
68.0343,3072
68.3626,3039
68.6908,3015
69.0191,3096
69.3474,3001
69.6756,3028
70.0039,3039
70.3321,3045
70.6604,3138
70.9886,3063
71.3169,2982
71.6451,3001
71.9734,3089
72.3017,3024
72.6299,3053
72.9582,3135
73.2864,3121
73.6147,3033
73.9429,2954
74.2712,3004
74.5995,2964
74.9277,3166
75.256,2928
75.5842,3071
75.9125,3092
76.2407,3098
76.569,2896
76.8973,3030
77.2255,2990
77.5538,3006
77.882,3006
78.2103,2904
78.5385,2973
78.8668,2971
79.1951,2915
79.5233,2900
79.8516,3013
80.1798,3003
80.5081,2975
80.8363,2817
81.1646,2886
81.4929,3026
81.8211,2930
82.1494,2916
82.4776,2895
82.80589,2901
83.1341,2926
83.4624,2926
83.7907,3021
84.1189,2922
84.4472,2926
84.7754,2879
85.1037,2922
85.4319,2997
85.7602,2868
86.0885,2769
86.4167,2769
86.745,2861
87.0732,2936
87.4015,2794
87.7297,2910
88.058,2820
88.3863,2744
88.7145,2781
89.0428,2887
89.371,2869
89.6993,2776
90.0275,2806
90.3558,2803
90.6841,2832
91.0123,2815
91.3406,2821
91.6688,2741
91.9971,2909
92.3253,2809
92.6536,2740
92.9819,2882
93.3101,2850
93.6384,2785
93.9666,2896
94.2949,2738
94.6231,2789
94.9514,2649
95.2797,2698
95.6079,2730
95.9362,2692
96.2644,2724
96.5927,2710
96.9209,2740
97.2492,2667
97.5775,2663
97.9057,2688
98.234,2689
98.5622,2741
98.8905,2677
99.2187,2631
99.547,2611
99.8753,2613
99.9934,2613