File: Year 3/Mossbauer/XRD_NBS4_raw.csv
Angle,Intensity
5.00897,3208
5.33722,3352
5.66548,3619
5.99374,3758
6.32199,4003
6.65025,4201
6.97851,4484
7.30676,4589
7.63502,4692
7.96328,4948
8.29154,5184
8.61979,5229
8.94805,5695
9.27631,5773
9.60456,5920
9.93282,5960
10.2611,6042
10.5893,6180
10.9176,6395
11.2458,6384
11.5741,6507
11.9024,6578
12.2306,6624
12.5589,6698
12.8871,6873
13.2154,6854
13.5436,7130
13.8719,7298
14.2002,7268
14.5284,7247
14.8567,7357
15.1849,7402
15.5132,7608
15.8414,7506
16.1697,7632
16.498,7427
16.8262,7472
17.1545,7501
17.4827,7445
17.811,7546
18.1392,7425
18.4675,7475
18.7958,7214
19.124,7353
19.4523,7296
19.7805,7291
20.1088,7233
20.437,7337
20.7653,7361
21.0936,7356
21.4218,7337
21.7501,7263
22.0783,7284
22.4066,7193
22.7348,7184
23.0631,6986
23.3914,7136
23.7196,7064
24.0479,7107
24.3761,6972
24.7044,7131
25.0326,6884
25.3609,6924
25.6892,6918
26.0174,6841
26.3457,6813
26.6739,6686
27.0022,6706
27.3304,6593
27.6587,6632
27.987,6532
28.3152,6563
28.6435,6644
28.9717,6556
29.3,6566
29.6282,6478
29.9565,6617
30.2848,6544
30.613,6623
30.9413,6509
31.2695,6504
31.5978,6522
31.926,6495
32.2543,6424
32.5826,6586
32.9108,6395
33.2391,6458
33.5673,6521
33.8956,6780
34.2238,6468
34.5521,6496
34.8804,6474
35.2086,6484
35.5369,6402
35.8651,6521
36.1934,6338
36.5216,6355
36.8499,6339
37.1782,6264
37.5064,6319
37.8347,6108
38.1629,6054
38.4912,6021
38.8194,5884
39.1477,5856
39.476,5921
39.8042,5800
40.1325,5781
40.4607,5637
40.789,5459
41.1172,5501
41.4455,5373
41.7738,5277
42.102,5237
42.4303,5340
42.7585,5044
43.0868,5085
43.415,4893
43.7433,4881
44.0716,4959
44.3998,4929
44.7281,4808
45.0563,4718
45.3846,4810
45.7128,4663
46.0411,4804
46.3694,4637
46.6976,4671
47.0259,4650
47.3541,4537
47.6824,4563
48.0106,4576
48.3389,4495
48.6672,4661
48.9954,4545
49.3237,4569
49.6519,4447
49.9802,4567
50.3084,4602
50.6367,4503
50.965,4486
51.2932,4481
51.6215,4510
51.9497,4429
52.278,4580
52.6062,4565
52.9345,4343
53.2628,4503
53.591,4493
53.9193,4487
54.2475,4312
54.5758,4412
54.904,4355
55.2323,4384
55.5606,4318
55.8888,4260
56.2171,4238
56.5453,4088
56.8736,4171
57.2018,4116
57.5301,4201
57.8584,4167
58.1866,4129
58.5149,4144
58.8431,4050
59.1714,3987
59.4996,3982
59.8279,4037
60.1562,3967
60.4844,4012
60.8127,4066
61.1409,3943
61.4692,4062
61.7974,3955
62.1257,3964
62.454,4028
62.7822,4052
63.1105,3927
63.4387,3934
63.767,3904
64.0952,3948
64.4235,4008
64.7518,3985
65.08,3930
65.4083,4008
65.7365,3889
66.0648,3923
66.393,3869
66.7213,3898
67.0496,3825
67.3778,3943
67.7061,3891
68.0343,3852
68.3626,3810
68.6908,3821
69.0191,3766
69.3474,3749
69.6756,3765
70.0039,3864
70.3321,3813
70.6604,3782
70.9886,3762
71.3169,3812
71.6451,3854
71.9734,3767
72.3017,3864
72.6299,3829
72.9582,3862
73.2864,3819
73.6147,3768
73.9429,3777
74.2712,3831
74.5995,3789
74.9277,3901
75.256,3664
75.5842,3682
75.9125,3736
76.2407,3822
76.569,3714
76.8973,3634
77.2255,3691
77.5538,3716
77.882,3562
78.2103,3656
78.5385,3612
78.8668,3726
79.1951,3614
79.5233,3686
79.8516,3586
80.1798,3658
80.5081,3675
80.8363,3484
81.1646,3548
81.4929,3541
81.8211,3561
82.1494,3577
82.4776,3535
82.80589,3560
83.1341,3503
83.4624,3610
83.7907,3466
84.1189,3567
84.4472,3468
84.7754,3523
85.1037,3483
85.4319,3449
85.7602,3526
86.0885,3487
86.4167,3600
86.745,3527
87.0732,3557
87.4015,3439
87.7297,3374
88.058,3487
88.3863,3384
88.7145,3403
89.0428,3333
89.371,3378
89.6993,3406
90.0275,3474
90.3558,3402
90.6841,3443
91.0123,3308
91.3406,3421
91.6688,3408
91.9971,3504
92.3253,3346
92.6536,3352
92.9819,3488
93.3101,3353
93.6384,3332
93.9666,3385
94.2949,3496
94.6231,3368
94.9514,3372
95.2797,3482
95.6079,3331
95.9362,3465
96.2644,3398
96.5927,3508
96.9209,3477
97.2492,3490
97.5775,3474
97.9057,3378
98.234,3488
98.5622,3402
98.8905,3421
99.2187,3413
99.547,3433
99.8753,3486
99.9934,3373