File: PhD Work/Raman Plotter_050524/Plot Data/UG Glasses/NBS/JC_UG_NBS3_5th_cut_bas_ther_vect_050624.csv
RamanShift,NBS3
49.85,-0.000158567
55.64,-7.19589E-05
61.42,4.24808E-05
67.21,2.59944E-05
72.99,0.000144814
78.78,0.000175518
84.56,0.00021959
90.35,0.000268891
96.13,0.000317064
101.92,0.000302497
107.7,0.00040094
113.49,0.000381913
119.27,0.000420393
125.06,0.000487057
130.85,0.000456012
136.63,0.000476787
142.42,0.000479776
148.2,0.000428243
153.99,0.000458387
159.77,0.000397624
165.56,0.00034894
171.34,0.000350372
177.13,0.000301555
182.91,0.000248448
188.7,0.000201847
194.48,0.000124659
200.27,7.79893E-05
206.06,8.26761E-05
211.84,7.57742E-05
217.63,7.13911E-05
223.41,4.28856E-05
229.2,2.73083E-06
234.98,1.87329E-05
240.77,6.63114E-06
246.55,0.000102248
252.34,0.000132152
258.12,0.000182573
263.91,0.000279038
269.69,0.000290396
275.48,0.000398743
281.27,0.000486089
287.05,0.000655586
292.84,0.000843228
298.62,0.001125149
304.41,0.001374011
310.19,0.001651887
315.98,0.001964278
321.76,0.002193263
327.55,0.002557954
333.33,0.002924175
339.12,0.003389328
344.91,0.003824742
350.69,0.004332403
356.48,0.004832357
362.26,0.005297356
368.05,0.005758472
373.83,0.006221184
379.62,0.006673655
385.4,0.007136526
391.19,0.007751567
396.97,0.008324912
402.76,0.008847783
408.54,0.009593571
414.33,0.0100863
420.12,0.0108074
425.9,0.01133794
431.69,0.0120418
437.47,0.0128023
443.26,0.0134092
449.04,0.01438549
454.83,0.0152164
460.61,0.0159342
466.4,0.0169733
472.18,0.0176613
477.97,0.0185088
483.75,0.0195115
489.54,0.0200489
495.33,0.0205652
501.11,0.0212615
506.9,0.02211912
512.68,0.0230781
518.47,0.02401688
524.25,0.0247212
530.04,0.0257628
535.82,0.0271037
541.61,0.0275203
547.39,0.0280964
553.18,0.0274942
558.96,0.0273233
564.75,0.0262747
570.54,0.02533727
576.32,0.0242191
582.11,0.0230467
587.89,0.0219698
593.68,0.0208609
599.46,0.0200226
605.25,0.0193719
611.03,0.0193356
616.82,0.0199871
622.6,0.0206587
628.39,0.0210695
634.18,0.0208443
639.96,0.0200569
645.75,0.0188274
651.53,0.0178237
657.32,0.0167334
663.1,0.0161248
668.89,0.015676
674.67,0.015115
680.46,0.0146606
686.24,0.0140887
692.03,0.0138643
697.81,0.0134741
703.6,0.0132096
709.39,0.0132036
715.17,0.01287
720.96,0.0125409
726.74,0.01252346
732.53,0.0124013
738.31,0.01264167
744.1,0.01288786
749.88,0.0127947
755.67,0.0123541
761.45,0.0118412
767.24,0.0111707
773.02,0.0103583
778.81,0.009787772
784.6,0.008948928
790.38,0.00829782
796.17,0.007800796
801.95,0.007214109
807.74,0.007144735
813.52,0.007074952
819.31,0.007428267
825.09,0.008249153
830.88,0.009207333
836.66,0.0108648
842.45,0.01256677
848.23,0.0144728
854.02,0.01669055
859.81,0.0190351
865.59,0.021564
871.38,0.0243376
877.16,0.0277552
882.95,0.0308262
888.73,0.03438711
894.52,0.0380473
900.3,0.0420378
906.09,0.0451858
911.87,0.04844617
917.66,0.051633
923.45,0.0542477
929.23,0.0573568
935.02,0.05935262
940.8,0.0615401
946.59,0.062853
952.37,0.0638202
958.16,0.06433
963.94,0.0643373
969.73,0.0636708
975.51,0.0628879
981.3,0.0617157
987.08,0.0602237
992.87,0.0586431
998.66,0.0570847
1004.44,0.0563782
1010.23,0.0556598
1016.01,0.0558188
1021.8,0.0564086
1027.58,0.0575313
1033.37,0.0588433
1039.15,0.0609097
1044.94,0.0623886
1050.72,0.0638208
1056.51,0.0652911
1062.3,0.0656909
1068.08,0.0659834
1073.87,0.0651705
1079.65,0.0629961
1085.44,0.0612685
1091.22,0.0580886
1097.01,0.054451
1102.79,0.050827
1108.58,0.0464033
1114.36,0.04235577
1120.15,0.0385583
1125.93,0.0346517
1131.72,0.03085338
1137.51,0.0273825
1143.29,0.0241787
1149.08,0.0212583
1154.86,0.0182411
1160.65,0.0154514
1166.43,0.0131933
1172.22,0.0108722
1178,0.008912519
1183.79,0.007269387
1189.57,0.005684213
1195.36,0.004485884
1201.14,0.003513308
1206.93,0.002588747
1212.72,0.002093093
1218.5,0.001329736
1224.29,0.001018691
1230.07,0.000715505
1235.86,0.000563569
1241.64,0.000339062
1247.43,0.000263352
1253.21,0.000185294
1259,6.97872E-05
1264.78,0.000158865
1270.57,0.000157184
1276.35,0.000311429
1282.14,0.000285661
1287.93,0.000529194
1293.71,0.000821782
1299.5,0.001243609
1305.28,0.001418425
1311.07,0.00186547
1316.85,0.002310119
1322.64,0.002798803
1328.42,0.003026353
1334.21,0.003600111
1339.99,0.003972321
1345.78,0.004231524
1351.57,0.004625571
1357.35,0.004887064
1363.14,0.005414455
1368.92,0.005630512
1374.71,0.005649039
1380.49,0.005885641
1386.28,0.005787188
1392.06,0.005895488
1397.85,0.005856457
1403.63,0.005779854
1409.42,0.005722073
1415.2,0.005572309
1420.99,0.005692045
1426.78,0.005682519
1432.56,0.005428724
1438.35,0.005438031
1444.13,0.005473664
1449.92,0.005438471
1455.7,0.005465455
1461.49,0.005463634
1467.27,0.005219497
1473.06,0.00495662
1478.84,0.004680956
1484.63,0.004224088
1490.41,0.003555609
1496.2,0.003030563
1501.99,0.002702463
1507.77,0.002140151
1513.56,0.001697086
1519.34,0.001329472
1525.13,0.001056426
1530.91,0.000766452
1536.7,0.000604647
1542.48,0.000306086
1548.27,0.00017262
1554.05,0.000777035
1559.84,0.000377756
1565.62,-9.83247E-05
1571.41,-0.000152683
1577.2,-0.000211313
1582.98,-0.00017514
1588.77,-0.000112622
1594.55,3.93611E-05
1599.37,3.43849E-06