File: PhD Work/Raman Plotter_050524/Plot Data/UG Glasses/NBS/JC_UG_NBS2_5th_cut_bas_ther_vect_050624.csv
RamanShift,NBS2
49.85,-3.32601E-05
55.64,7.51439E-05
61.42,0.000186516
67.21,0.000219189
72.99,0.000363299
78.78,0.000396938
84.56,0.000472293
90.35,0.000563669
96.13,0.000603827
101.92,0.000624756
107.7,0.000728676
113.49,0.000733844
119.27,0.000780217
125.06,0.000851566
130.85,0.00083128
136.63,0.000868573
142.42,0.000859471
148.2,0.000811741
153.99,0.000847297
159.77,0.000766688
165.56,0.000711674
171.34,0.000709569
177.13,0.000621555
182.91,0.000552215
188.7,0.000471497
194.48,0.000383942
200.27,0.000306997
206.06,0.000301572
211.84,0.000240974
217.63,0.000197944
223.41,0.000131719
229.2,6.33853E-05
234.98,4.39552E-05
240.77,2.22111E-05
246.55,5.52424E-05
252.34,4.3353E-05
258.12,5.60143E-05
263.91,0.000133394
269.69,0.000118416
275.48,0.000200612
281.27,0.000257954
287.05,0.000386762
292.84,0.000567837
298.62,0.000831521
304.41,0.00103164
310.19,0.001275184
315.98,0.001600785
321.76,0.001828049
327.55,0.002142578
333.33,0.002469552
339.12,0.002859642
344.91,0.003277538
350.69,0.003732736
356.48,0.004162115
362.26,0.004601857
368.05,0.005003905
373.83,0.005427849
379.62,0.005885098
385.4,0.00626129
391.19,0.006876344
396.97,0.007450965
402.76,0.007913287
408.54,0.008645089
414.33,0.009112588
420.12,0.009773694
425.9,0.0102963
431.69,0.0110107
437.47,0.0118378
443.26,0.0124402
449.04,0.0134417
454.83,0.01428534
460.61,0.0150249
466.4,0.0160979
472.18,0.01687977
477.97,0.0178137
483.75,0.0188477
489.54,0.0194902
495.33,0.0201413
501.11,0.0209566
506.9,0.0218752
512.68,0.0229017
518.47,0.023886
524.25,0.0246915
530.04,0.025767
535.82,0.026981
541.61,0.0274296
547.39,0.0278988
553.18,0.0273352
558.96,0.02711
564.75,0.0260458
570.54,0.0251241
576.32,0.0240471
582.11,0.022748
587.89,0.02169094
593.68,0.02063155
599.46,0.0198659
605.25,0.0194983
611.03,0.0198899
616.82,0.0210809
622.6,0.02228836
628.39,0.0229617
634.18,0.0227391
639.96,0.0216279
645.75,0.0200145
651.53,0.01868231
657.32,0.0173421
663.1,0.016511
668.89,0.0157962
674.67,0.01500461
680.46,0.0142378
686.24,0.013483
692.03,0.0129253
697.81,0.0124299
703.6,0.0118431
709.39,0.0116875
715.17,0.0111137
720.96,0.0107248
726.74,0.0104491
732.53,0.0104041
738.31,0.0104643
744.1,0.0106858
749.88,0.01043372
755.67,0.009876562
761.45,0.009164407
767.24,0.00832303
773.02,0.007359925
778.81,0.006491557
784.6,0.005514092
790.38,0.004827908
796.17,0.004097003
801.95,0.003539618
807.74,0.003214123
813.52,0.003095104
819.31,0.003489678
825.09,0.004290241
830.88,0.005178305
836.66,0.006816303
842.45,0.00850464
848.23,0.0102703
854.02,0.0122897
859.81,0.0143994
865.59,0.016929
871.38,0.01938585
877.16,0.0222848
882.95,0.025105
888.73,0.0282417
894.52,0.0313909
900.3,0.035058
906.09,0.0380431
911.87,0.04083286
917.66,0.043946
923.45,0.04659
929.23,0.0496408
935.02,0.0518252
940.8,0.0540835
946.59,0.0556165
952.37,0.0568718
958.16,0.057669
963.94,0.0579502
969.73,0.0577467
975.51,0.0574954
981.3,0.0568634
987.08,0.0559414
992.87,0.0551601
998.66,0.0542248
1004.44,0.05415773
1010.23,0.0543094
1016.01,0.055407
1021.8,0.05666096
1027.58,0.0588047
1033.37,0.06128256
1039.15,0.0644993
1044.94,0.0671678
1050.72,0.06974437
1056.51,0.07218844
1062.3,0.0736223
1068.08,0.0747026
1073.87,0.0743378
1079.65,0.0724364
1085.44,0.0706267
1091.22,0.0669612
1097.01,0.0630747
1102.79,0.0588192
1108.58,0.053714
1114.36,0.0489046
1120.15,0.0446049
1125.93,0.0401253
1131.72,0.0356368
1137.51,0.0316006
1143.29,0.02790807
1149.08,0.02438583
1154.86,0.0210686
1160.65,0.0179194
1166.43,0.0151933
1172.22,0.01252641
1178,0.0104
1183.79,0.008401498
1189.57,0.00666137
1195.36,0.0051411
1201.14,0.003930388
1206.93,0.003024128
1212.72,0.002250313
1218.5,0.001505307
1224.29,0.001110534
1230.07,0.000673403
1235.86,0.00046655
1241.64,0.000325326
1247.43,0.000195914
1253.21,0.000145538
1259,1.19114E-05
1264.78,0.000213742
1270.57,0.000307781
1276.35,0.000366643
1282.14,0.000437259
1287.93,0.000829679
1293.71,0.00117468
1299.5,0.001574539
1305.28,0.001935587
1311.07,0.002266069
1316.85,0.002881405
1322.64,0.00336282
1328.42,0.003695658
1334.21,0.004173061
1339.99,0.004522217
1345.78,0.004807459
1351.57,0.005338571
1357.35,0.00551093
1363.14,0.005911031
1368.92,0.006122698
1374.71,0.006489709
1380.49,0.006606439
1386.28,0.006587672
1392.06,0.006804464
1397.85,0.006888725
1403.63,0.006747624
1409.42,0.006908747
1415.2,0.006778214
1420.99,0.006970515
1426.78,0.0068613
1432.56,0.007085934
1438.35,0.007099928
1444.13,0.007358323
1449.92,0.007449877
1455.7,0.007609009
1461.49,0.007562892
1467.27,0.007462099
1473.06,0.00717271
1478.84,0.006749755
1484.63,0.006114655
1490.41,0.005454209
1496.2,0.004819201
1501.99,0.00419922
1507.77,0.003520595
1513.56,0.003147372
1519.34,0.002556637
1525.13,0.002158842
1530.91,0.001753106
1536.7,0.001483509
1542.48,0.001100299
1548.27,0.000966428
1554.05,0.001611474
1559.84,0.000783731
1565.62,0.000291052
1571.41,6.36933E-05
1577.2,9.4145E-05
1582.98,-4.91412E-05
1588.77,-0.000146292
1594.55,-5.6087E-05
1599.37,-4.31859E-05