File: PhD Work/Raman Plotter_050524/Plot Data/UG Glasses/NBS/JC_UG_NBS1_5th_cut_bas_ther_vect_050624.csv
RamanShift,NBS1
49.85,-0.000163984
55.64,-7.83709E-05
61.42,1.48964E-06
67.21,1.9432E-05
72.99,0.000135496
78.78,0.000150331
84.56,0.00020334
90.35,0.000283913
96.13,0.000297242
101.92,0.000309906
107.7,0.000401342
113.49,0.000410456
119.27,0.000448145
125.06,0.000513897
130.85,0.000498588
136.63,0.0005503
142.42,0.000539815
148.2,0.000518036
153.99,0.000560329
159.77,0.000498198
165.56,0.000459818
171.34,0.000469167
177.13,0.000416534
182.91,0.000358896
188.7,0.0002956
194.48,0.000212742
200.27,0.000168244
206.06,0.000156115
211.84,0.000148419
217.63,0.00011878
223.41,6.52994E-05
229.2,1.82497E-05
234.98,4.29932E-05
240.77,3.22244E-05
246.55,9.72168E-05
252.34,9.62468E-05
258.12,0.000161086
263.91,0.000255168
269.69,0.000273314
275.48,0.000392621
281.27,0.000507133
287.05,0.00067761
292.84,0.000877048
298.62,0.001158875
304.41,0.001380882
310.19,0.00166893
315.98,0.001990524
321.76,0.00217008
327.55,0.002544852
333.33,0.002800165
339.12,0.003180169
344.91,0.003550259
350.69,0.003961645
356.48,0.004418849
362.26,0.004785208
368.05,0.005175232
373.83,0.005571653
379.62,0.005908896
385.4,0.006285213
391.19,0.00688639
396.97,0.007419446
402.76,0.007826648
408.54,0.00855283
414.33,0.008983046
420.12,0.009596792
425.9,0.0101434
431.69,0.0108157
437.47,0.0116507
443.26,0.0121829
449.04,0.0131852
454.83,0.0140597
460.61,0.0148424
466.4,0.0160198
472.18,0.0168855
477.97,0.0179089
483.75,0.0191799
489.54,0.0199609
495.33,0.020801
501.11,0.0218239
506.9,0.0230203
512.68,0.0242594
518.47,0.0255277
524.25,0.02652467
530.04,0.0276175
535.82,0.0289509
541.61,0.0293618
547.39,0.0299842
553.18,0.02953672
558.96,0.0296577
564.75,0.0290794
570.54,0.0285836
576.32,0.0279063
582.11,0.0271114
587.89,0.02629331
593.68,0.0255649
599.46,0.0252617
605.25,0.0252816
611.03,0.0264007
616.82,0.0284297
622.6,0.0304241
628.39,0.0312224
634.18,0.0308572
639.96,0.0293609
645.75,0.0269371
651.53,0.0249655
657.32,0.0229813
663.1,0.0216036
668.89,0.0203942
674.67,0.0190439
680.46,0.0176698
686.24,0.0161357
692.03,0.015199
697.81,0.0141822
703.6,0.0133465
709.39,0.0128477
715.17,0.0119354
720.96,0.01118284
726.74,0.0105877
732.53,0.0101918
738.31,0.0101208
744.1,0.0100668
749.88,0.00966226
755.67,0.008884115
761.45,0.008017113
767.24,0.007108609
773.02,0.005888494
778.81,0.005072963
784.6,0.003990134
790.38,0.002990599
796.17,0.002034141
801.95,0.00104287
807.74,0.000536079
813.52,0.000167719
819.31,6.33562E-05
825.09,0.000491765
830.88,0.001071051
836.66,0.0022077
842.45,0.00337358
848.23,0.004662403
854.02,0.005903637
859.81,0.007349817
865.59,0.008757613
871.38,0.0103559
877.16,0.0122046
882.95,0.0137378
888.73,0.0156613
894.52,0.0175667
900.3,0.0196861
906.09,0.02128315
911.87,0.0231445
917.66,0.0251849
923.45,0.0270032
929.23,0.0296453
935.02,0.0313634
940.8,0.0333058
946.59,0.0346346
952.37,0.0356534
958.16,0.03642262
963.94,0.036941
969.73,0.0371814
975.51,0.0378627
981.3,0.0385812
987.08,0.0392982
992.87,0.0400526
998.66,0.04091725
1004.44,0.0425466
1010.23,0.0444671
1016.01,0.0471062
1021.8,0.05036604
1027.58,0.0545231
1033.37,0.0590427
1039.15,0.0648807
1044.94,0.0701458
1050.72,0.0754004
1056.51,0.0807798
1062.3,0.0847646
1068.08,0.0882593
1073.87,0.0900178
1079.65,0.0890862
1085.44,0.0882528
1091.22,0.084702
1097.01,0.08007464
1102.79,0.0748531
1108.58,0.06843974
1114.36,0.0621775
1120.15,0.0563755
1125.93,0.0503331
1131.72,0.0443701
1137.51,0.039324
1143.29,0.03446946
1149.08,0.030102
1154.86,0.025739
1160.65,0.0217381
1166.43,0.0185771
1172.22,0.0152715
1178,0.0125978
1183.79,0.0103752
1189.57,0.008183728
1195.36,0.006496098
1201.14,0.005079318
1206.93,0.003791827
1212.72,0.003005086
1218.5,0.002022217
1224.29,0.001469816
1230.07,0.000947205
1235.86,0.000628011
1241.64,0.000226283
1247.43,3.45991E-05
1253.21,-8.22453E-05
1259,-0.000309519
1264.78,-0.000247186
1270.57,-0.0002937
1276.35,-4.12435E-05
1282.14,-0.00018667
1287.93,0.000120288
1293.71,0.000231788
1299.5,0.000592217
1305.28,0.000648014
1311.07,0.001034321
1316.85,0.001311116
1322.64,0.001622761
1328.42,0.001789621
1334.21,0.002077802
1339.99,0.002148436
1345.78,0.002388363
1351.57,0.00242687
1357.35,0.002476586
1363.14,0.002877651
1368.92,0.002965323
1374.71,0.003084491
1380.49,0.003314757
1386.28,0.003335214
1392.06,0.003565868
1397.85,0.003802365
1403.63,0.003979989
1409.42,0.004233631
1415.2,0.00432172
1420.99,0.004684885
1426.78,0.004990399
1432.56,0.00502748
1438.35,0.005512344
1444.13,0.005883223
1449.92,0.006196431
1455.7,0.006594775
1461.49,0.006827773
1467.27,0.006879939
1473.06,0.006642203
1478.84,0.006228256
1484.63,0.005677794
1490.41,0.00498284
1496.2,0.004248938
1501.99,0.00366129
1507.77,0.003015467
1513.56,0.002453153
1519.34,0.001895995
1525.13,0.001525123
1530.91,0.001195965
1536.7,0.000950134
1542.48,0.000508382
1548.27,0.000358383
1554.05,0.001268353
1559.84,0.000195967
1565.62,6.28479E-05
1571.41,-2.04503E-06
1577.2,3.33793E-05
1582.98,1.50034E-05
1588.77,0.000207439
1594.55,0.000437187
1599.37,0.000392043