File: PhD Work/Raman Plotter_050524/Plot Data/UG Glasses/NBS/JC_UG_NBS4_5th_cut_bas_ther_vect_050624.csv
RamanShift,NBS4
49.85,-2.76994E-05
55.64,9.37121E-05
61.42,0.00024901
67.21,0.000246973
72.99,0.000414302
78.78,0.00045829
84.56,0.000534686
90.35,0.000609025
96.13,0.000672122
101.92,0.000666658
107.7,0.000793846
113.49,0.000770387
119.27,0.000822518
125.06,0.000894575
130.85,0.000864346
136.63,0.000880503
142.42,0.000885756
148.2,0.000821015
153.99,0.000853936
159.77,0.000757125
165.56,0.000707766
171.34,0.000709252
177.13,0.000612612
182.91,0.000552717
188.7,0.000489541
194.48,0.00039102
200.27,0.000314189
206.06,0.000303438
211.84,0.000262657
217.63,0.000227326
223.41,0.00016731
229.2,0.000100922
234.98,6.76047E-05
240.77,2.36128E-05
246.55,7.54795E-05
252.34,5.96247E-05
258.12,6.60334E-05
263.91,0.000109161
269.69,5.98763E-05
275.48,8.71663E-05
281.27,0.00011563
287.05,0.000226567
292.84,0.000362194
298.62,0.000604294
304.41,0.000773795
310.19,0.001011123
315.98,0.001280308
321.76,0.001451739
327.55,0.001798599
333.33,0.002104989
339.12,0.002567275
344.91,0.002983645
350.69,0.003463913
356.48,0.003965463
362.26,0.004392664
368.05,0.004851208
373.83,0.005295829
379.62,0.005681624
385.4,0.006131013
391.19,0.006688441
396.97,0.007273231
402.76,0.007733938
408.54,0.008487687
414.33,0.008941658
420.12,0.009609719
425.9,0.0101491
431.69,0.01081261
437.47,0.0115187
443.26,0.0121054
449.04,0.0130242
454.83,0.01383349
460.61,0.01448696
466.4,0.0154734
472.18,0.0160996
477.97,0.0168208
483.75,0.0177039
489.54,0.0181144
495.33,0.0184614
501.11,0.0189912
506.9,0.0196871
512.68,0.0204442
518.47,0.0212361
524.25,0.0218535
530.04,0.0228152
535.82,0.0240134
541.61,0.024323
547.39,0.0247189
553.18,0.0239484
558.96,0.0234262
564.75,0.0221659
570.54,0.02087
576.32,0.0194682
582.11,0.0179996
587.89,0.01660333
593.68,0.0151728
599.46,0.0139886
605.25,0.0129832
611.03,0.0124774
616.82,0.0126426
622.6,0.0129828
628.39,0.0130481
634.18,0.0126755
639.96,0.0119058
645.75,0.0107338
651.53,0.009791341
657.32,0.008874193
663.1,0.008277218
668.89,0.007906935
674.67,0.007485078
680.46,0.007208105
686.24,0.006832383
692.03,0.006794956
697.81,0.006516329
703.6,0.006376294
709.39,0.006453739
715.17,0.006310684
720.96,0.006115112
726.74,0.006153342
732.53,0.00624064
738.31,0.006597266
744.1,0.006886148
749.88,0.006872427
755.67,0.006516201
761.45,0.006079506
767.24,0.005496954
773.02,0.004671942
778.81,0.004192413
784.6,0.003391631
790.38,0.002761495
796.17,0.002352259
801.95,0.001911322
807.74,0.001862847
813.52,0.001931844
819.31,0.002385492
825.09,0.003344504
830.88,0.004568032
836.66,0.006529362
842.45,0.00857044
848.23,0.010898
854.02,0.0135509
859.81,0.0166077
865.59,0.0198077
871.38,0.0232853
877.16,0.0275922
882.95,0.03156198
888.73,0.0362183
894.52,0.040793
900.3,0.04583028
906.09,0.0501592
911.87,0.054403
917.66,0.0585712
923.45,0.0618227
929.23,0.065717
935.02,0.06809
940.8,0.0704698
946.59,0.0719553
952.37,0.0730677
958.16,0.0735458
963.94,0.0731263
969.73,0.0718459
975.51,0.0704091
981.3,0.0683664
987.08,0.0659419
992.87,0.0636413
998.66,0.0611574
1004.44,0.0596975
1010.23,0.058404
1016.01,0.05779095
1021.8,0.0577107
1027.58,0.0582768
1033.37,0.0589579
1039.15,0.0602258
1044.94,0.060884
1050.72,0.0614985
1056.51,0.0620808
1062.3,0.0615905
1068.08,0.0612039
1073.87,0.0599455
1079.65,0.0574492
1085.44,0.055406
1091.22,0.0522552
1097.01,0.0487562
1102.79,0.0453178
1108.58,0.0412594
1114.36,0.0375854
1120.15,0.034068
1125.93,0.03047971
1131.72,0.0269457
1137.51,0.0238329
1143.29,0.0208629
1149.08,0.0181451
1154.86,0.015284
1160.65,0.0127284
1166.43,0.0106842
1172.22,0.008549265
1178,0.006755648
1183.79,0.00527808
1189.57,0.003826819
1195.36,0.002808544
1201.14,0.00197474
1206.93,0.001239603
1212.72,0.000871849
1218.5,0.000388612
1224.29,0.000192884
1230.07,5.23176E-05
1235.86,0.000111445
1241.64,-7.38513E-07
1247.43,0.000103419
1253.21,0.000118228
1259,0.000220545
1264.78,0.000429564
1270.57,0.000410675
1276.35,0.000783323
1282.14,0.00079463
1287.93,0.001133953
1293.71,0.001542347
1299.5,0.002093923
1305.28,0.00241323
1311.07,0.002990621
1316.85,0.00362638
1322.64,0.004261738
1328.42,0.004720062
1334.21,0.005364587
1339.99,0.0059515
1345.78,0.006399596
1351.57,0.006913806
1357.35,0.007213161
1363.14,0.007799034
1368.92,0.008051112
1374.71,0.008211355
1380.49,0.008281906
1386.28,0.008225746
1392.06,0.00824428
1397.85,0.008109942
1403.63,0.007949385
1409.42,0.007815013
1415.2,0.007588872
1420.99,0.007507606
1426.78,0.007474539
1432.56,0.006996703
1438.35,0.006901252
1444.13,0.0068085
1449.92,0.006680729
1455.7,0.00653842
1461.49,0.006496507
1467.27,0.006205305
1473.06,0.005755642
1478.84,0.005439411
1484.63,0.004914978
1490.41,0.004305941
1496.2,0.003729872
1501.99,0.003222709
1507.77,0.00275005
1513.56,0.002294638
1519.34,0.001937641
1525.13,0.001617445
1530.91,0.001366447
1536.7,0.001140119
1542.48,0.000870149
1548.27,0.000726344
1554.05,0.001576702
1559.84,0.000955503
1565.62,0.000299876
1571.41,0.000182961
1577.2,0.000126283
1582.98,0.000135541
1588.77,0.00013532
1594.55,0.000245454
1599.37,0.000219249