File: Year 3/AIT/SAMPLE3_XRD.csv
20.0065 67.0
20.1772 60.0
20.3479 85.0
20.5185 67.0
20.6892 72.0
20.8599 51.0
21.0306 63.0
21.2013 72.0
21.372 69.0
21.5427 74.0
21.7134 64.0
21.8841 65.0
22.0548 74.0
22.2255 70.0
22.3962 74.0
22.5669 61.0
22.7376 61.0
22.9083 62.0
23.079 53.0
23.2496 51.0
23.4203 57.0
23.591 72.0
23.7617 68.0
23.9324 45.0
24.1031 64.0
24.2738 63.0
24.4445 51.0
24.6152 51.0
24.7859 51.0
24.9566 56.0
25.1273 45.0
25.298 57.0
25.4687 69.0
25.6394 113.0
25.8101 170.0
25.9807 92.0
26.1514 69.0
26.3221 69.0
26.4928 56.0
26.6635 58.0
26.8342 58.0
27.0049 48.0
27.1756 60.0
27.3463 39.0
27.517 49.0
27.6877 51.0
27.8584 65.0
28.0291 73.0
28.1998 54.0
28.3705 52.0
28.5411 46.0
28.7118 48.0
28.8825 46.0
29.0532 49.0
29.2239 51.0
29.3946 59.0
29.5653 56.0
29.736 52.0
29.9067 49.0
30.0774 51.0
30.2481 48.0
30.4188 54.0
30.5895 54.0
30.7602 51.0
30.9309 57.0
31.1016 57.0
31.2722 34.0
31.4429 46.0
31.6136 53.0
31.7843 48.0
31.955 47.0
32.1257 50.0
32.2964 48.0
32.4671 50.0
32.6378 57.0
32.8085 73.0
32.9792 75.0
33.1499 62.0
33.3206 47.0
33.4913 48.0
33.662 38.0
33.8327 39.0
34.0033 59.0
34.174 45.0
34.3447 38.0
34.5154 41.0
34.6861 35.0
34.8568 53.0
35.0275 54.0
35.1982 39.0
35.3689 53.0
35.5396 45.0
35.7103 47.0
35.881 53.0
36.0517 57.0
36.2224 43.0
36.3931 60.0
36.5638 96.0
36.7344 645.0
36.9051 677.0
37.0758 118.0
37.2465 58.0
37.4172 38.0
37.5879 35.0
37.7586 57.0
37.9293 43.0
38.1 34.0
38.2707 46.0
38.4414 42.0
38.6121 48.0
38.7828 46.0
38.9535 48.0
39.1242 46.0
39.2949 36.0
39.4655 37.0
39.6362 40.0
39.8069 43.0
39.9776 49.0
40.1483 52.0
40.319 37.0
40.4897 33.0
40.6604 43.0
40.8311 39.0
41.0018 45.0
41.1725 41.0
41.3432 37.0
41.5139 45.0
41.6846 38.0
41.8553 34.0
42.0259 28.0
42.1966 52.0
42.3673 30.0
42.538 36.0
42.7087 45.0
42.8794 42.0
43.0501 29.0
43.2208 36.0
43.3915 39.0
43.5622 32.0
43.7329 30.0
43.9036 29.0
44.0743 35.0
44.245 44.0
44.4157 40.0
44.5864 39.0
44.757 23.0
44.9277 36.0
45.0984 46.0
45.2691 56.0
45.4398 145.0
45.6105 218.0
45.7812 47.0
45.9519 33.0
46.1226 47.0
46.2933 56.0
46.464 34.0
46.6347 42.0
46.8054 33.0
46.9761 32.0
47.1468 41.0
47.3175 38.0
47.4881 38.0
47.6588 31.0
47.8295 31.0
48.0002 24.0
48.1709 23.0
48.3416 23.0
48.5123 30.0
48.683 37.0
48.8537 28.0
49.0244 38.0
49.1951 34.0
49.3658 40.0
49.5365 46.0
49.7072 35.0
49.8779 34.0
50.0486 31.0
50.2192 33.0
50.3899 27.0
50.5606 37.0
50.7313 29.0
50.902 42.0
51.0727 36.0
51.2434 24.0
51.4141 22.0
51.5848 33.0
51.7555 26.0
51.9262 28.0
52.0969 37.0
52.2676 41.0
52.4383 29.0
52.609 67.0
52.7797 108.0
52.9503 101.0
53.121 133.0
53.2917 164.0
53.4624 45.0
53.6331 34.0
53.8038 28.0
53.9745 24.0
54.1452 34.0
54.3159 22.0
54.4866 29.0
54.6573 25.0
54.828 34.0
54.9987 24.0
55.1694 37.0
55.3401 32.0
55.5107 33.0
55.6814 29.0
55.8521 39.0
56.0228 27.0
56.1935 29.0
56.3642 26.0
56.5349 25.0
56.7056 32.0
56.8763 29.0
57.047 33.0
57.2177 31.0
57.3884 20.0
57.5591 21.0
57.7298 23.0
57.9005 44.0
58.0712 45.0
58.2418 38.0
58.4125 25.0
58.5832 44.0
58.7539 25.0
58.9246 34.0
59.0953 39.0
59.266 32.0
59.4367 47.0
59.6074 44.0
59.7781 63.0
59.9488 67.0
60.1195 63.0
60.2902 44.0
60.4609 29.0
60.6316 31.0
60.8023 32.0
60.9729 29.0
61.1436 25.0
61.3143 29.0
61.485 27.0
61.6557 35.0
61.8264 22.0
61.9971 37.0
62.1678 30.0
62.3385 26.0
62.5092 20.0
62.6799 23.0
62.8506 29.0
63.0213 24.0
63.192 30.0
63.3627 33.0
63.5334 26.0
63.704 37.0
63.8747 31.0
64.0454 27.0
64.2161 30.0
64.3868 23.0
64.5575 22.0
64.7282 16.0
64.8989 27.0
65.0696 22.0
65.2403 29.0
65.411 34.0
65.5817 33.0
65.7524 35.0
65.9231 37.0
66.0938 117.0
66.2645 142.0
66.4351 219.0
66.6058 128.0
66.7765 52.0
66.9472 36.0
67.1179 41.0
67.2886 36.0
67.4593 31.0
67.63 36.0
67.8007 33.0
67.9714 30.0
68.1421 28.0
68.3128 27.0
68.4835 28.0
68.6542 28.0
68.8249 25.0
68.9955 33.0
69.1662 36.0
69.3369 28.0
69.5076 29.0
69.6783 28.0
69.849 25.0
69.9935 20.0