File: Year 3/AIT/SAMPLE2_XRD.csv
20.0065 72.0
20.1772 69.0
20.3479 77.0
20.5185 67.0
20.6892 58.0
20.8599 74.0
21.0306 71.0
21.2013 80.0
21.372 61.0
21.5427 80.0
21.7134 63.0
21.8841 67.0
22.0548 62.0
22.2255 78.0
22.3962 63.0
22.5669 60.0
22.7376 78.0
22.9083 80.0
23.079 73.0
23.2496 71.0
23.4203 63.0
23.591 70.0
23.7617 58.0
23.9324 50.0
24.1031 59.0
24.2738 57.0
24.4445 60.0
24.6152 44.0
24.7859 61.0
24.9566 65.0
25.1273 72.0
25.298 61.0
25.4687 67.0
25.6394 155.0
25.8101 194.0
25.9807 83.0
26.1514 66.0
26.3221 49.0
26.4928 56.0
26.6635 55.0
26.8342 54.0
27.0049 57.0
27.1756 49.0
27.3463 59.0
27.517 48.0
27.6877 52.0
27.8584 60.0
28.0291 49.0
28.1998 41.0
28.3705 37.0
28.5411 47.0
28.7118 61.0
28.8825 41.0
29.0532 57.0
29.2239 39.0
29.3946 45.0
29.5653 44.0
29.736 52.0
29.9067 60.0
30.0774 54.0
30.2481 50.0
30.4188 38.0
30.5895 46.0
30.7602 36.0
30.9309 46.0
31.1016 43.0
31.2722 47.0
31.4429 56.0
31.6136 44.0
31.7843 44.0
31.955 62.0
32.1257 44.0
32.2964 39.0
32.4671 44.0
32.6378 46.0
32.8085 59.0
32.9792 50.0
33.1499 50.0
33.3206 50.0
33.4913 49.0
33.662 48.0
33.8327 53.0
34.0033 37.0
34.174 48.0
34.3447 44.0
34.5154 30.0
34.6861 31.0
34.8568 34.0
35.0275 34.0
35.1982 35.0
35.3689 41.0
35.5396 39.0
35.7103 44.0
35.881 37.0
36.0517 48.0
36.2224 54.0
36.3931 50.0
36.5638 97.0
36.7344 820.0
36.9051 652.0
37.0758 107.0
37.2465 60.0
37.4172 47.0
37.5879 41.0
37.7586 25.0
37.9293 36.0
38.1 41.0
38.2707 39.0
38.4414 51.0
38.6121 44.0
38.7828 38.0
38.9535 41.0
39.1242 45.0
39.2949 25.0
39.4655 30.0
39.6362 31.0
39.8069 40.0
39.9776 44.0
40.1483 38.0
40.319 26.0
40.4897 34.0
40.6604 31.0
40.8311 22.0
41.0018 36.0
41.1725 36.0
41.3432 40.0
41.5139 35.0
41.6846 39.0
41.8553 22.0
42.0259 32.0
42.1966 39.0
42.3673 34.0
42.538 40.0
42.7087 32.0
42.8794 31.0
43.0501 22.0
43.2208 30.0
43.3915 32.0
43.5622 32.0
43.7329 36.0
43.9036 24.0
44.0743 29.0
44.245 33.0
44.4157 22.0
44.5864 30.0
44.757 36.0
44.9277 31.0
45.0984 46.0
45.2691 54.0
45.4398 201.0
45.6105 212.0
45.7812 53.0
45.9519 45.0
46.1226 35.0
46.2933 24.0
46.464 24.0
46.6347 38.0
46.8054 29.0
46.9761 26.0
47.1468 33.0
47.3175 27.0
47.4881 30.0
47.6588 33.0
47.8295 29.0
48.0002 37.0
48.1709 35.0
48.3416 21.0
48.5123 31.0
48.683 25.0
48.8537 29.0
49.0244 25.0
49.1951 37.0
49.3658 20.0
49.5365 27.0
49.7072 27.0
49.8779 26.0
50.0486 24.0
50.2192 22.0
50.3899 31.0
50.5606 31.0
50.7313 23.0
50.902 26.0
51.0727 22.0
51.2434 29.0
51.4141 24.0
51.5848 29.0
51.7555 30.0
51.9262 39.0
52.0969 29.0
52.2676 21.0
52.4383 23.0
52.609 49.0
52.7797 99.0
52.9503 94.0
53.121 144.0
53.2917 116.0
53.4624 55.0
53.6331 27.0
53.8038 22.0
53.9745 29.0
54.1452 25.0
54.3159 23.0
54.4866 32.0
54.6573 28.0
54.828 30.0
54.9987 24.0
55.1694 22.0
55.3401 30.0
55.5107 26.0
55.6814 30.0
55.8521 26.0
56.0228 22.0
56.1935 28.0
56.3642 17.0
56.5349 27.0
56.7056 20.0
56.8763 17.0
57.047 20.0
57.2177 29.0
57.3884 39.0
57.5591 22.0
57.7298 25.0
57.9005 23.0
58.0712 21.0
58.2418 25.0
58.4125 25.0
58.5832 19.0
58.7539 27.0
58.9246 21.0
59.0953 29.0
59.266 29.0
59.4367 27.0
59.6074 50.0
59.7781 49.0
59.9488 52.0
60.1195 73.0
60.2902 33.0
60.4609 21.0
60.6316 26.0
60.8023 22.0
60.9729 24.0
61.1436 18.0
61.3143 25.0
61.485 20.0
61.6557 21.0
61.8264 16.0
61.9971 30.0
62.1678 22.0
62.3385 29.0
62.5092 27.0
62.6799 22.0
62.8506 25.0
63.0213 34.0
63.192 23.0
63.3627 23.0
63.5334 23.0
63.704 19.0
63.8747 21.0
64.0454 25.0
64.2161 18.0
64.3868 26.0
64.5575 26.0
64.7282 18.0
64.8989 18.0
65.0696 25.0
65.2403 24.0
65.411 31.0
65.5817 20.0
65.7524 27.0
65.9231 59.0
66.0938 122.0
66.2645 165.0
66.4351 237.0
66.6058 96.0
66.7765 31.0
66.9472 14.0
67.1179 25.0
67.2886 31.0
67.4593 24.0
67.63 26.0
67.8007 14.0
67.9714 23.0
68.1421 23.0
68.3128 23.0
68.4835 26.0
68.6542 12.0
68.8249 26.0
68.9955 31.0
69.1662 22.0
69.3369 18.0
69.5076 23.0
69.6783 25.0
69.849 19.0
69.9935 19.0