File: Year 3/AIT/SAMPLE1_XRD.csv
20.0065 64.0
20.1772 60.0
20.3479 56.0
20.5185 73.0
20.6892 65.0
20.8599 62.0
21.0306 64.0
21.2013 50.0
21.372 47.0
21.5427 60.0
21.7134 55.0
21.8841 53.0
22.0548 56.0
22.2255 55.0
22.3962 50.0
22.5669 64.0
22.7376 57.0
22.9083 48.0
23.079 56.0
23.2496 40.0
23.4203 60.0
23.591 44.0
23.7617 52.0
23.9324 59.0
24.1031 60.0
24.2738 52.0
24.4445 54.0
24.6152 60.0
24.7859 64.0
24.9566 59.0
25.1273 46.0
25.298 61.0
25.4687 67.0
25.6394 122.0
25.8101 171.0
25.9807 98.0
26.1514 59.0
26.3221 46.0
26.4928 50.0
26.6635 57.0
26.8342 50.0
27.0049 47.0
27.1756 51.0
27.3463 40.0
27.517 56.0
27.6877 55.0
27.8584 46.0
28.0291 41.0
28.1998 58.0
28.3705 65.0
28.5411 53.0
28.7118 49.0
28.8825 42.0
29.0532 41.0
29.2239 41.0
29.3946 29.0
29.5653 34.0
29.736 52.0
29.9067 34.0
30.0774 62.0
30.2481 47.0
30.4188 41.0
30.5895 42.0
30.7602 32.0
30.9309 30.0
31.1016 32.0
31.2722 32.0
31.4429 42.0
31.6136 35.0
31.7843 37.0
31.955 44.0
32.1257 45.0
32.2964 47.0
32.4671 46.0
32.6378 41.0
32.8085 34.0
32.9792 37.0
33.1499 40.0
33.3206 54.0
33.4913 37.0
33.662 36.0
33.8327 44.0
34.0033 36.0
34.174 33.0
34.3447 35.0
34.5154 51.0
34.6861 43.0
34.8568 45.0
35.0275 43.0
35.1982 34.0
35.3689 52.0
35.5396 35.0
35.7103 48.0
35.881 34.0
36.0517 27.0
36.2224 36.0
36.3931 62.0
36.5638 101.0
36.7344 634.0
36.9051 663.0
37.0758 107.0
37.2465 50.0
37.4172 38.0
37.5879 33.0
37.7586 47.0
37.9293 24.0
38.1 40.0
38.2707 30.0
38.4414 35.0
38.6121 35.0
38.7828 30.0
38.9535 42.0
39.1242 19.0
39.2949 28.0
39.4655 25.0
39.6362 26.0
39.8069 37.0
39.9776 28.0
40.1483 29.0
40.319 35.0
40.4897 33.0
40.6604 21.0
40.8311 32.0
41.0018 42.0
41.1725 27.0
41.3432 28.0
41.5139 23.0
41.6846 29.0
41.8553 30.0
42.0259 39.0
42.1966 26.0
42.3673 28.0
42.538 16.0
42.7087 28.0
42.8794 20.0
43.0501 21.0
43.2208 24.0
43.3915 20.0
43.5622 34.0
43.7329 24.0
43.9036 18.0
44.0743 28.0
44.245 27.0
44.4157 27.0
44.5864 28.0
44.757 19.0
44.9277 33.0
45.0984 31.0
45.2691 39.0
45.4398 161.0
45.6105 182.0
45.7812 33.0
45.9519 28.0
46.1226 27.0
46.2933 23.0
46.464 22.0
46.6347 25.0
46.8054 16.0
46.9761 20.0
47.1468 22.0
47.3175 20.0
47.4881 20.0
47.6588 20.0
47.8295 20.0
48.0002 28.0
48.1709 16.0
48.3416 21.0
48.5123 18.0
48.683 24.0
48.8537 23.0
49.0244 25.0
49.1951 20.0
49.3658 30.0
49.5365 18.0
49.7072 20.0
49.8779 25.0
50.0486 27.0
50.2192 25.0
50.3899 30.0
50.5606 31.0
50.7313 27.0
50.902 30.0
51.0727 24.0
51.2434 29.0
51.4141 13.0
51.5848 19.0
51.7555 22.0
51.9262 26.0
52.0969 15.0
52.2676 22.0
52.4383 20.0
52.609 49.0
52.7797 103.0
52.9503 96.0
53.121 138.0
53.2917 122.0
53.4624 53.0
53.6331 27.0
53.8038 22.0
53.9745 32.0
54.1452 16.0
54.3159 18.0
54.4866 19.0
54.6573 22.0
54.828 25.0
54.9987 19.0
55.1694 19.0
55.3401 22.0
55.5107 24.0
55.6814 22.0
55.8521 16.0
56.0228 23.0
56.1935 30.0
56.3642 17.0
56.5349 27.0
56.7056 19.0
56.8763 18.0
57.047 16.0
57.2177 17.0
57.3884 16.0
57.5591 19.0
57.7298 17.0
57.9005 26.0
58.0712 17.0
58.2418 17.0
58.4125 17.0
58.5832 19.0
58.7539 14.0
58.9246 17.0
59.0953 19.0
59.266 19.0
59.4367 26.0
59.6074 39.0
59.7781 46.0
59.9488 52.0
60.1195 45.0
60.2902 20.0
60.4609 20.0
60.6316 19.0
60.8023 9.0
60.9729 20.0
61.1436 17.0
61.3143 28.0
61.485 15.0
61.6557 16.0
61.8264 16.0
61.9971 17.0
62.1678 17.0
62.3385 19.0
62.5092 12.0
62.6799 15.0
62.8506 26.0
63.0213 19.0
63.192 19.0
63.3627 11.0
63.5334 14.0
63.704 15.0
63.8747 17.0
64.0454 18.0
64.2161 18.0
64.3868 18.0
64.5575 13.0
64.7282 18.0
64.8989 15.0
65.0696 21.0
65.2403 20.0
65.411 21.0
65.5817 22.0
65.7524 30.0
65.9231 31.0
66.0938 94.0
66.2645 141.0
66.4351 242.0
66.6058 113.0
66.7765 25.0
66.9472 16.0
67.1179 13.0
67.2886 23.0
67.4593 27.0
67.63 16.0
67.8007 15.0
67.9714 15.0
68.1421 15.0
68.3128 16.0
68.4835 18.0
68.6542 24.0
68.8249 18.0
68.9955 17.0
69.1662 20.0
69.3369 25.0
69.5076 22.0
69.6783 16.0
69.849 13.0
69.9935 13.0