File: PhD Work/XRD Plotter_240524/ALMW25_raw_280524.csv
10.0116,7200
10.3137,7271
10.6157,7318
10.9178,7270
11.2199,6958
11.522,7287
11.8241,7247
12.1262,7054
12.4283,6903
12.7304,6943
13.0325,7062
13.3346,6989
13.6367,7006
13.9387,6958
14.2408,6878
14.5429,6958
14.845,6955
15.1471,7003
15.4492,6957
15.7513,7022
16.0534,7034
16.3555,7198
16.6576,7277
16.9597,7181
17.2617,7544
17.5638,7534
17.8659,7664
18.168,7608
18.4701,7657
18.7722,8066
19.0743,8059
19.3764,8220
19.6785,8283
19.9806,8424
20.2826,8740
20.5847,8610
20.8868,8898
21.1889,8878
21.491,8971
21.7931,8943
22.0952,8912
22.3973,9207
22.6994,9270
23.0015,9120
23.3036,9426
23.6056,9130
23.9077,9438
24.2098,9299
24.5119,9477
24.814,9155
25.1161,9332
25.4182,9261
25.7203,9262
26.0224,9006
26.3245,9023
26.6266,8907
26.9286,8917
27.2307,8870
27.5328,8537
27.8349,8579
28.137,8388
28.4391,8324
28.7412,8065
29.0433,8029
29.3454,7932
29.6475,7676
29.9495,7622
30.2516,7572
30.5537,7290
30.8558,7172
31.1579,7123
31.46,6904
31.7621,6898
32.0642,6722
32.3663,6489
32.6684,6458
32.9705,6166
33.2725,6237
33.5746,5944
33.8767,5940
34.1788,5724
34.4809,5644
34.783,5597
35.0851,5627
35.3872,5536
35.6893,5212
35.9914,5280
36.2935,5078
36.5955,5129
36.8976,5279
37.1997,4830
37.5018,4805
37.8039,4721
38.106,4640
38.4081,4724
38.7102,4429
39.0123,4562
39.3144,4332
39.6165,4277
39.9185,4418
40.2206,4414
40.5227,4274
40.8248,4085
41.1269,4225
41.429,4122
41.7311,4156
42.0332,4166
42.3353,4194
42.6374,4203
42.9394,4214
43.2415,4058
43.5436,4090
43.8457,4321
44.1478,4133
44.4499,4002
44.752,4243
45.0541,4090
45.3562,4024
45.6583,4070
45.9604,3921
46.2624,4147
46.5645,4088
46.8666,3912
47.1687,3884
47.4708,3848
47.7729,3806
48.075,3825
48.3771,3780
48.6792,3697
48.9813,3749
49.2834,3654
49.5854,3743
49.8875,3702
50.1896,3736
50.4917,3599
50.7938,3576
51.0959,3387
51.398,3424
51.7001,3309
52.0022,3347
52.3043,3451
52.6064,3185
52.9084,3206
53.2105,3269
53.5126,3123
53.8147,3160
54.1168,3138
54.4189,3166
54.721,3155
55.0231,3099
55.3252,3017
55.6273,2964
55.9293,2988
56.2314,2983
56.5335,3058
56.8356,2942
57.1377,2922
57.4398,2868
57.7419,2947
58.044,2845
58.3461,2899
58.6482,2798
58.9503,2894
59.2523,2814
59.5544,2748
59.8565,2818
60.1586,2743
60.4607,2764
60.7628,2816
61.0649,2763
61.367,2760
61.6691,2759
61.9712,2710
62.2733,2606
62.5753,2782
62.8774,2744
63.1795,2690
63.4816,2765
63.7837,2565
64.0858,2633
64.3879,2695
64.69,2639
64.9921,2725
65.2942,2680
65.5962,2722
65.8983,2653
66.2004,2647
66.5025,2639
66.8046,2676
67.1067,2635
67.4088,2717
67.7109,2611
68.013,2606
68.3151,2596
68.6172,2597
68.9192,2502
69.2213,2543
69.5234,2590
69.8255,2393
70.1276,2546
70.4297,2394
70.7318,2468
71.0339,2464
71.336,2488
71.6381,2504
71.9402,2477
72.2422,2420
72.5443,2377
72.8464,2396
73.1485,2379
73.4506,2296
73.7527,2436
74.0548,2419
74.3569,2306
74.659,2354
74.9611,2257
75.2632,2311
75.5652,2356
75.8673,2355
76.1694,2392
76.4715,2342
76.7736,2283
77.0757,2285
77.3778,2184
77.6799,2202
77.982,2253
78.2841,2190
78.5861,2258
78.8882,2184
79.1903,2129
79.4924,2180
79.7945,2187
80.0966,2104
80.3987,2140
80.7008,2047
81.0029,2112
81.305,2010
81.6071,2093
81.9091,2124
82.2112,2077
82.5133,2013
82.8154,2055
83.1175,2052
83.4196,1998
83.7217,1885
84.0238,1949
84.3259,2014
84.628,1834
84.9301,1977
85.2321,1855
85.5342,1918
85.8363,1831
86.1384,1912
86.4405,2003
86.7426,1822
87.0447,1874
87.3468,1860
87.6489,1863
87.951,1878
88.2531,1760
88.5551,1841
88.8572,1799
89.1593,1829
89.4614,1761
89.7635,1915
90.0656,1707
90.3677,1656
90.6698,1710
90.9719,1688
91.274,1724
91.576,1684
91.8781,1670
92.1802,1704
92.4823,1598
92.7844,1612
93.0865,1690
93.3886,1652
93.6907,1655
93.9928,1581
94.2949,1636
94.597,1638
94.899,1596
95.2011,1500
95.5032,1485
95.8053,1484
96.1074,1590
96.4095,1543
96.7116,1529
97.0137,1498
97.3158,1544
97.6179,1546
97.92,1354
98.222,1551
98.5241,1438
98.8262,1579
99.1283,1556
99.4304,1513
99.7325,1512
99.9934,14