File: PhD Work/XRD Plotter_240524/ALMW5_raw_240524.csv
10.0116,7471
10.3137,7425
10.6157,7356
10.9178,7239
11.2199,7440
11.522,7127
11.8241,7349
12.1262,7293
12.4283,7048
12.7304,7251
13.0325,6930
13.3346,6822
13.6367,6890
13.9387,6924
14.2408,6778
14.5429,6901
14.845,6834
15.1471,6808
15.4492,6895
15.7513,6871
16.0534,7097
16.3555,7040
16.6576,7285
16.9597,7094
17.2617,7191
17.5638,7438
17.8659,7649
18.168,7624
18.4701,7968
18.7722,7755
19.0743,8058
19.3764,8005
19.6785,8299
19.9806,8449
20.2826,8529
20.5847,8603
20.8868,8922
21.1889,8996
21.491,8858
21.7931,9159
22.0952,9076
22.3973,9183
22.6994,9168
23.0015,9152
23.3036,9311
23.6056,9175
23.9077,9184
24.2098,9360
24.5119,9178
24.814,9378
25.1161,9460
25.4182,9214
25.7203,9194
26.0224,9118
26.3245,9136
26.6266,9197
26.9286,8876
27.2307,8655
27.5328,8719
27.8349,8602
28.137,8399
28.4391,8089
28.7412,8084
29.0433,8076
29.3454,7968
29.6475,7760
29.9495,7464
30.2516,7307
30.5537,7207
30.8558,7053
31.1579,6998
31.46,6857
31.7621,6657
32.0642,6601
32.3663,6564
32.6684,6359
32.9705,6215
33.2725,6030
33.5746,6007
33.8767,5707
34.1788,5764
34.4809,5595
34.783,5507
35.0851,5374
35.3872,5346
35.6893,5346
35.9914,5188
36.2935,5081
36.5955,5150
36.8976,4981
37.1997,4917
37.5018,4825
37.8039,4760
38.106,4706
38.4081,4539
38.7102,4517
39.0123,4490
39.3144,4413
39.6165,4285
39.9185,4394
40.2206,4228
40.5227,4193
40.8248,4281
41.1269,4068
41.429,4262
41.7311,4205
42.0332,4112
42.3353,4091
42.6374,4160
42.9394,4091
43.2415,4138
43.5436,4135
43.8457,4165
44.1478,4192
44.4499,4190
44.752,3983
45.0541,4080
45.3562,3944
45.6583,4068
45.9604,3915
46.2624,3926
46.5645,4062
46.8666,3904
47.1687,3840
47.4708,3797
47.7729,3890
48.075,3740
48.3771,3788
48.6792,3732
48.9813,3719
49.2834,3700
49.5854,3613
49.8875,3897
50.1896,3742
50.4917,3618
50.7938,3474
51.0959,3511
51.398,3479
51.7001,3323
52.0022,3424
52.3043,3289
52.6064,3297
52.9084,3154
53.2105,3255
53.5126,3223
53.8147,3039
54.1168,3182
54.4189,3092
54.721,3043
55.0231,3018
55.3252,3036
55.6273,2878
55.9293,3039
56.2314,2952
56.5335,2891
56.8356,3083
57.1377,2893
57.4398,2829
57.7419,2854
58.044,2923
58.3461,2813
58.6482,2863
58.9503,2884
59.2523,2730
59.5544,2759
59.8565,2943
60.1586,2928
60.4607,2807
60.7628,2778
61.0649,2829
61.367,2862
61.6691,2861
61.9712,2724
62.2733,2773
62.5753,2776
62.8774,2651
63.1795,2702
63.4816,2761
63.7837,2687
64.0858,2768
64.3879,2660
64.69,2786
64.9921,2693
65.2942,2659
65.5962,2635
65.8983,2737
66.2004,2764
66.5025,2640
66.8046,2699
67.1067,2639
67.4088,2702
67.7109,2621
68.013,2589
68.3151,2566
68.6172,2567
68.9192,2563
69.2213,2631
69.5234,2623
69.8255,2422
70.1276,2591
70.4297,2551
70.7318,2511
71.0339,2394
71.336,2504
71.6381,2568
71.9402,2456
72.2422,2482
72.5443,2497
72.8464,2501
73.1485,2378
73.4506,2406
73.7527,2371
74.0548,2402
74.3569,2383
74.659,2377
74.9611,2345
75.2632,2395
75.5652,2356
75.8673,2299
76.1694,2297
76.4715,2263
76.7736,2276
77.0757,2321
77.3778,2160
77.6799,2281
77.982,2232
78.2841,2203
78.5861,2181
78.8882,2123
79.1903,2133
79.4924,2191
79.7945,2177
80.0966,2112
80.3987,2213
80.7008,2095
81.0029,2139
81.305,2033
81.6071,2007
81.9091,1964
82.2112,2007
82.5133,2044
82.8154,1975
83.1175,2024
83.4196,2020
83.7217,2083
84.0238,1926
84.3259,1936
84.628,2001
84.9301,1888
85.2321,1996
85.5342,1961
85.8363,1855
86.1384,1847
86.4405,1863
86.7426,1862
87.0447,1787
87.3468,1766
87.6489,1873
87.951,1751
88.2531,1723
88.5551,1765
88.8572,1794
89.1593,1687
89.4614,1644
89.7635,1633
90.0656,1658
90.3677,1744
90.6698,1735
90.9719,1664
91.274,1710
91.576,1593
91.8781,1691
92.1802,1573
92.4823,1576
92.7844,1619
93.0865,1619
93.3886,1635
93.6907,1614
93.9928,1575
94.2949,1545
94.597,1582
94.899,1540
95.2011,1504
95.5032,1570
95.8053,1455
96.1074,1542
96.4095,1531
96.7116,1521
97.0137,1511
97.3158,1520
97.6179,1540
97.92,1494
98.222,1449
98.5241,1494
98.8262,1532
99.1283,1515
99.4304,1479
99.7325,1491
99.9934,14