File: PhD Work/XRD Plotter_240524/MW0_raw_280524.csv
10.0116,7273
10.3137,7539
10.6157,7371
10.9178,7213
11.2199,7117
11.522,7257
11.8241,7108
12.1262,7189
12.4283,7215
12.7304,7046
13.0325,7029
13.3346,6901
13.6367,6972
13.9387,6913
14.2408,6838
14.5429,7021
14.845,6790
15.1471,6759
15.4492,6953
15.7513,6990
16.0534,7151
16.3555,7105
16.6576,7336
16.9597,7349
17.2617,7367
17.5638,7610
17.8659,7564
18.168,7727
18.4701,7898
18.7722,7809
19.0743,8072
19.3764,8181
19.6785,8282
19.9806,8497
20.2826,8698
20.5847,8576
20.8868,8517
21.1889,8983
21.491,8846
21.7931,8907
22.0952,8779
22.3973,9096
22.6994,9197
23.0015,9145
23.3036,9259
23.6056,9126
23.9077,9161
24.2098,9159
24.5119,9200
24.814,9360
25.1161,9264
25.4182,9331
25.7203,9420
26.0224,9116
26.3245,9136
26.6266,9109
26.9286,8823
27.2307,8918
27.5328,8884
27.8349,8526
28.137,8415
28.4391,8299
28.7412,8101
29.0433,8037
29.3454,7800
29.6475,7832
29.9495,7623
30.2516,7376
30.5537,7343
30.8558,7171
31.1579,6968
31.46,6935
31.7621,6744
32.0642,6628
32.3663,6671
32.6684,6402
32.9705,6323
33.2725,6130
33.5746,6069
33.8767,5940
34.1788,5800
34.4809,5703
34.783,5642
35.0851,5446
35.3872,5200
35.6893,5304
35.9914,5249
36.2935,5326
36.5955,4981
36.8976,5070
37.1997,5038
37.5018,4843
37.8039,4823
38.106,4750
38.4081,4558
38.7102,4631
39.0123,4434
39.3144,4333
39.6165,4244
39.9185,4307
40.2206,4246
40.5227,4162
40.8248,4095
41.1269,4259
41.429,4109
41.7311,4147
42.0332,4134
42.3353,4255
42.6374,4050
42.9394,4242
43.2415,4151
43.5436,4132
43.8457,4148
44.1478,4046
44.4499,4061
44.752,4071
45.0541,4200
45.3562,4196
45.6583,3950
45.9604,4080
46.2624,4095
46.5645,4037
46.8666,4010
47.1687,3996
47.4708,3942
47.7729,3915
48.075,3833
48.3771,3803
48.6792,3814
48.9813,3877
49.2834,3616
49.5854,3656
49.8875,3865
50.1896,3851
50.4917,3634
50.7938,3514
51.0959,3510
51.398,3334
51.7001,3206
52.0022,3356
52.3043,3348
52.6064,3233
52.9084,3245
53.2105,3170
53.5126,3219
53.8147,3080
54.1168,3078
54.4189,3134
54.721,3068
55.0231,3073
55.3252,2948
55.6273,2929
55.9293,3004
56.2314,2927
56.5335,2800
56.8356,2970
57.1377,2924
57.4398,2956
57.7419,2820
58.044,2851
58.3461,2980
58.6482,2774
58.9503,2903
59.2523,2869
59.5544,2736
59.8565,2803
60.1586,2936
60.4607,2794
60.7628,2748
61.0649,2745
61.367,2688
61.6691,2735
61.9712,2821
62.2733,2666
62.5753,2702
62.8774,2726
63.1795,2780
63.4816,2672
63.7837,2665
64.0858,2677
64.3879,2665
64.69,2756
64.9921,2695
65.2942,2689
65.5962,2601
65.8983,2633
66.2004,2654
66.5025,2748
66.8046,2522
67.1067,2724
67.4088,2565
67.7109,2641
68.013,2620
68.3151,2601
68.6172,2605
68.9192,2520
69.2213,2510
69.5234,2529
69.8255,2504
70.1276,2568
70.4297,2522
70.7318,2537
71.0339,2533
71.336,2495
71.6381,2434
71.9402,2452
72.2422,2444
72.5443,2359
72.8464,2513
73.1485,2433
73.4506,2372
73.7527,2397
74.0548,2323
74.3569,2354
74.659,2409
74.9611,2427
75.2632,2333
75.5652,2328
75.8673,2333
76.1694,2355
76.4715,2274
76.7736,2240
77.0757,2241
77.3778,2284
77.6799,2195
77.982,2259
78.2841,2190
78.5861,2215
78.8882,2216
79.1903,2190
79.4924,2181
79.7945,2215
80.0966,2288
80.3987,2157
80.7008,2053
81.0029,2071
81.305,2048
81.6071,2087
81.9091,2046
82.2112,2122
82.5133,2107
82.8154,2021
83.1175,2006
83.4196,2086
83.7217,2099
84.0238,1942
84.3259,1996
84.628,1934
84.9301,1960
85.2321,1966
85.5342,1922
85.8363,1965
86.1384,1921
86.4405,1968
86.7426,1952
87.0447,1791
87.3468,1906
87.6489,1876
87.951,1909
88.2531,1784
88.5551,1807
88.8572,1777
89.1593,1798
89.4614,1742
89.7635,1774
90.0656,1764
90.3677,1808
90.6698,1792
90.9719,1717
91.274,1785
91.576,1663
91.8781,1641
92.1802,1753
92.4823,1625
92.7844,1630
93.0865,1624
93.3886,1691
93.6907,1595
93.9928,1649
94.2949,1645
94.597,1640
94.899,1649
95.2011,1585
95.5032,1560
95.8053,1603
96.1074,1555
96.4095,1552
96.7116,1535
97.0137,1605
97.3158,1502
97.6179,1578
97.92,1462
98.222,1548
98.5241,1599
98.8262,1537
99.1283,1520
99.4304,1495
99.7325,1471
99.9934,14