File: PhD Work/Raman Plotter_050524/Plot Data/UG Glasses/SLS/JC_UG_SLS1_5th_cut_bas_ther_vect_050624.csv
RamanShift,SLS1
49.8496,-9.4362E-05
55.635,-1.96371E-05
61.4204,6.09096E-05
67.2058,5.87543E-05
72.9912,0.000159046
78.7766,0.000163853
84.562,0.000197041
90.3474,0.000242654
96.1328,0.000251669
101.918,0.000236033
107.704,0.000299776
113.489,0.000258809
119.274,0.000268306
125.06,0.000301666
130.845,0.00025086
136.631,0.000261699
142.416,0.000232364
148.201,0.000164433
153.987,0.000202854
159.772,0.000146503
165.558,0.000106744
171.343,0.000110909
177.128,6.72388E-05
182.914,6.19087E-05
188.699,3.49839E-05
194.485,2.40369E-05
200.27,2.31494E-05
206.055,8.77936E-05
211.841,0.000132868
217.626,0.000199545
223.412,0.000254206
229.197,0.000319283
234.982,0.000455435
240.768,0.000542613
246.553,0.000739811
252.339,0.000862082
258.124,0.0010541
263.909,0.001293451
269.695,0.001450041
275.48,0.001733141
281.266,0.001970191
287.051,0.002312309
292.836,0.002657846
298.622,0.003084249
304.407,0.003473955
310.193,0.003884762
315.978,0.004384933
321.763,0.004720095
327.549,0.00518088
333.334,0.005640344
339.12,0.006141571
344.905,0.006661464
350.69,0.007240596
356.476,0.007823916
362.261,0.008363138
368.047,0.008841922
373.832,0.009334158
379.617,0.00984682
385.403,0.0103033
391.188,0.0109808
396.974,0.01159846
402.759,0.0120946
408.544,0.0128845
414.33,0.0134135
420.115,0.0141445
425.901,0.0147321
431.686,0.015487
437.471,0.0162945
443.257,0.0168709
449.042,0.0177373
454.828,0.0183795
460.613,0.0186815
466.398,0.019315
472.184,0.0194298
477.969,0.0197517
483.755,0.0201695
489.54,0.0201576
495.325,0.0201406
501.111,0.02031869
506.896,0.0207872
512.682,0.0214809
518.467,0.0224734
524.252,0.0236146
530.038,0.0253553
535.823,0.0277898
541.609,0.0296125
547.394,0.0317358
553.179,0.032345
558.965,0.0330887
564.75,0.0324158
570.536,0.0316541
576.321,0.0306086
582.106,0.0292687
587.892,0.0282248
593.677,0.02709523
599.463,0.0257599
605.248,0.0240347
611.033,0.0222258
616.819,0.0206769
622.604,0.0192358
628.39,0.0178915
634.175,0.0168458
639.96,0.0158442
645.746,0.0147961
651.531,0.0139404
657.317,0.0128107
663.102,0.0118017
668.887,0.0107258
674.673,0.009601766
680.458,0.008451307
686.244,0.007362718
692.029,0.006369317
697.814,0.005290347
703.6,0.004236405
709.385,0.003622915
715.171,0.002997414
720.956,0.00254043
726.741,0.00226773
732.527,0.002044366
738.312,0.002053456
744.098,0.002433968
749.883,0.002818014
755.668,0.003435436
761.454,0.004147426
767.239,0.005055371
773.025,0.005767894
778.81,0.006451357
784.595,0.006780564
790.381,0.006952615
796.166,0.006800261
801.952,0.006333418
807.737,0.005799609
813.522,0.004816527
819.308,0.003825057
825.093,0.002736583
830.879,0.001488997
836.664,0.00068157
842.449,0.000224328
848.235,1.05455E-05
854.02,0.000228679
859.806,0.000802019
865.591,0.001560865
871.376,0.002557361
877.162,0.003894421
882.947,0.005307161
888.733,0.006989231
894.518,0.009025653
900.303,0.0115178
906.089,0.0138652
911.874,0.0167296
917.66,0.0199528
923.445,0.0230753
929.23,0.0268749
935.016,0.0300259
940.801,0.0330517
946.587,0.0355925
952.372,0.0373872
958.157,0.0385301
963.943,0.0393722
969.728,0.0395055
975.514,0.0401051
981.299,0.0405618
987.084,0.0410499
992.87,0.0418212
998.655,0.0425917
1004.44,0.043621
1010.23,0.0446797
1016.01,0.0463349
1021.8,0.0481237
1027.58,0.0503697
1033.37,0.0527259
1039.15,0.0558817
1044.94,0.0587329
1050.72,0.0622718
1056.51,0.0666113
1062.3,0.0708082
1068.08,0.07594489
1073.87,0.0808454
1079.65,0.0848486
1085.44,0.0893593
1091.22,0.0908319
1097.01,0.0901983
1102.79,0.08786678
1108.58,0.0826474
1114.36,0.0764401
1120.15,0.0703177
1125.93,0.0636567
1131.72,0.0569324
1137.51,0.0511359
1143.29,0.0458677
1149.08,0.041326
1154.86,0.0369649
1160.65,0.0327698
1166.43,0.0291572
1172.22,0.0255756
1178,0.022409
1183.79,0.0194714
1189.57,0.0166708
1195.36,0.0139338
1201.14,0.0116006
1206.93,0.009419474
1212.71,0.007715536
1218.5,0.005766633
1224.29,0.004379196
1230.07,0.003344573
1235.86,0.002350167
1241.64,0.001643785
1247.43,0.001132114
1253.21,0.000842566
1259,0.000517605
1264.78,0.000423546
1270.57,0.000334821
1276.35,0.000176914
1282.14,6.76011E-05
1287.92,5.19901E-05
1293.71,6.53469E-05
1299.5,0.00013606
1305.28,9.58233E-06
1311.07,-5.76198E-05
1316.85,0.000143514
1322.64,7.79911E-05
1328.42,0.000252792
1334.21,8.80591E-05
1339.99,0.000109052
1345.78,0.000265081
1351.57,0.000169872
1357.35,0.000144874
1363.13,0.000245955
1368.92,0.000201177
1374.71,0.000188103
1380.49,0.000366115
1386.28,0.000286364
1392.06,0.000359833
1397.85,0.000419254
1403.63,0.000359555
1409.42,0.000604121
1415.2,0.000544605
1420.99,0.000554108
1426.78,0.000627018
1432.56,0.000476373
1438.35,0.000672733
1444.13,0.000647185
1449.92,0.000542138
1455.7,0.000559614
1461.49,0.000763275
1467.27,0.000510665
1473.06,0.00059889
1478.84,0.000639075
1484.63,0.000731664
1490.41,0.000795815
1496.2,0.000807781
1501.98,0.000863506
1507.77,0.000958454
1513.56,0.000685893
1519.34,0.000795527
1525.13,0.000858463
1530.91,0.000630183
1536.7,0.000670918
1542.48,0.000600369
1548.27,0.000554112
1554.05,0.001344819
1559.84,0.000477428
1565.62,0.000234758
1571.41,0.000137839
1577.19,-0.000138108
1582.98,-0.000175282
1588.77,-0.000296156
1594.55,-0.000290087
1599.37,-0.000621858