File: PhD Work/Raman Plotter_050524/Plot Data/UG Glasses/SLS/JC_UG_SLS2_5th_cut_bas_ther_vect_050624.csv
RamanShift,SLS2
49.85,-0.000109631
55.64,-2.89357E-05
61.42,6.29389E-05
67.21,5.43959E-05
72.99,0.000166468
78.78,0.000169223
84.56,0.000201944
90.35,0.000248607
96.13,0.000261619
101.92,0.000238225
107.7,0.000304021
113.49,0.0002606
119.27,0.000279046
125.06,0.000298344
130.85,0.000245471
136.63,0.000254425
142.42,0.000229955
148.2,0.000152775
153.99,0.0001816
159.77,0.000129828
165.56,8.27225E-05
171.34,0.000105181
177.13,5.6711E-05
182.91,5.82624E-05
188.7,3.72365E-05
194.48,1.80501E-05
200.27,2.35662E-05
206.06,9.30877E-05
211.84,0.000139318
217.63,0.000201795
223.41,0.00025173
229.2,0.000299053
234.98,0.000415392
240.77,0.000517083
246.55,0.000701706
252.34,0.000836418
258.12,0.00100285
263.91,0.001245911
269.69,0.001387398
275.48,0.001646563
281.27,0.001877474
287.05,0.002206718
292.84,0.002558421
298.62,0.002975143
304.41,0.003359374
310.19,0.003784926
315.98,0.004244175
321.76,0.004617339
327.55,0.005084246
333.33,0.005583052
339.12,0.006112019
344.91,0.006677576
350.69,0.007284792
356.48,0.007890779
362.26,0.00846311
368.05,0.009001293
373.83,0.00952567
379.62,0.0100891
385.4,0.0105818
391.19,0.0113101
396.97,0.0119712
402.76,0.0125162
408.54,0.0133666
414.33,0.0139981
420.12,0.014738
425.9,0.0154055
431.69,0.0162006
437.47,0.0170468
443.26,0.0176711
449.04,0.0186358
454.83,0.0193728
460.61,0.0197775
466.4,0.0204936
472.18,0.0207436
477.97,0.0211103
483.75,0.0215526
489.54,0.0215628
495.33,0.0215561
501.11,0.0216419
506.9,0.0220166
512.68,0.0225718
518.47,0.0232794
524.25,0.0240278
530.04,0.0252224
535.82,0.0268767
541.61,0.0279667
547.39,0.0293582
553.18,0.0295534
558.96,0.0298992
564.75,0.0291998
570.54,0.0284334
576.32,0.02738177
582.11,0.0261078
587.89,0.0249098
593.68,0.0237063
599.46,0.022233
605.25,0.0205416
611.03,0.0188819
616.82,0.0173654
622.6,0.016047
628.39,0.0148047
634.18,0.01384842
639.96,0.0129283
645.75,0.0120402
651.53,0.0113042
657.32,0.0103795
663.1,0.009525971
668.89,0.008693599
674.67,0.007802243
680.46,0.006915709
686.24,0.006070908
692.03,0.005240643
697.81,0.004344007
703.6,0.003540377
709.39,0.003007697
715.17,0.002520237
720.96,0.002123188
726.74,0.001885256
732.53,0.001629783
738.31,0.001637326
744.1,0.001948157
749.88,0.002146163
755.67,0.002683426
761.45,0.003272413
767.24,0.003911146
773.02,0.004510937
778.81,0.004993692
784.6,0.005267889
790.38,0.005391772
796.17,0.005282259
801.95,0.004789211
807.74,0.004336912
813.52,0.003461098
819.31,0.002540307
825.09,0.001628667
830.88,0.000621367
836.66,0.000119776
842.45,1.88014E-05
848.23,0.000271938
854.02,0.00097847
859.81,0.002107294
865.59,0.003567316
871.38,0.005419681
877.16,0.007667477
882.95,0.0102801
888.73,0.0133661
894.52,0.0168514
900.3,0.0208094
906.09,0.0247802
911.87,0.0289766
917.66,0.0333762
923.45,0.0375164
929.23,0.0421121
935.02,0.0458222
940.8,0.0494485
946.59,0.0523784
952.37,0.054503
958.16,0.0561037
963.94,0.0571664
969.73,0.0572415
975.51,0.0575444
981.3,0.0573674
987.08,0.0569624
992.87,0.0564029
998.66,0.0557732
1004.44,0.0552925
1010.23,0.0548427
1016.01,0.054702
1021.8,0.0548428
1027.58,0.0554369
1033.37,0.0562954
1039.15,0.0580632
1044.94,0.059547
1050.72,0.0615779
1056.51,0.0644015
1062.3,0.0670261
1068.08,0.0702749
1073.87,0.0731049
1079.65,0.0749873
1085.44,0.0772213
1091.22,0.0772194
1097.01,0.0757863
1102.79,0.0731484
1108.58,0.0687056
1114.36,0.06331376
1120.15,0.0581986
1125.93,0.0527022
1131.72,0.0472517
1137.51,0.0425782
1143.29,0.0380437
1149.08,0.034096
1154.86,0.0305196
1160.65,0.026936
1166.43,0.02385689
1172.22,0.0207897
1178,0.01821551
1183.79,0.0156928
1189.57,0.01333045
1195.36,0.0110443
1201.14,0.009089825
1206.93,0.007322284
1212.72,0.005859045
1218.5,0.004345055
1224.29,0.003215443
1230.07,0.00241359
1235.86,0.001685193
1241.64,0.001213626
1247.43,0.000829899
1253.21,0.000682375
1259,0.000373532
1264.78,0.000333083
1270.57,0.000273518
1276.35,0.000124369
1282.14,8.94574E-05
1287.93,0.000115961
1293.71,0.000143362
1299.5,0.000106097
1305.28,2.96465E-05
1311.07,7.85523E-05
1316.85,0.000152179
1322.64,0.000163718
1328.42,0.000267263
1334.21,9.17941E-05
1339.99,0.000143552
1345.78,0.000296082
1351.57,0.000124349
1357.35,0.000132084
1363.14,0.000189739
1368.92,0.000221534
1374.71,0.000166861
1380.49,0.000258412
1386.28,0.000195657
1392.06,0.00029155
1397.85,0.000292781
1403.63,0.000227206
1409.42,0.000319043
1415.2,0.000388389
1420.99,0.000390343
1426.78,0.000423966
1432.56,0.000259444
1438.35,0.00048033
1444.13,0.000401571
1449.92,0.000384575
1455.7,0.000370093
1461.49,0.000564067
1467.27,0.000367343
1473.06,0.00037563
1478.84,0.000387046
1484.63,0.000409002
1490.41,0.000563855
1496.2,0.000565379
1501.99,0.000518505
1507.77,0.000590181
1513.56,0.000425309
1519.34,0.00053214
1525.13,0.000574489
1530.91,0.000275356
1536.7,0.000344518
1542.48,0.000352687
1548.27,0.000306681
1554.05,0.001223512
1559.84,0.00048009
1565.62,9.84161E-05
1571.41,-7.55029E-07
1577.2,-0.0001686
1582.98,-9.92008E-05
1588.77,-0.000260207
1594.55,-0.000250144
1599.37,-0.000469611