File: PhD Work/Raman Plotter_050524/Plot Data/UG Glasses/SLS/JC_UG_SLS4_5th_cut_bas_ther_vect_050624.csv
RamanShift,SLS4
49.85,1.58261E-05
55.64,0.000128844
61.42,0.000287951
67.21,0.00024018
72.99,0.000443658
78.78,0.000404239
84.56,0.000464074
90.35,0.000522758
96.13,0.000529604
101.92,0.000464322
107.7,0.000601931
113.49,0.000456236
119.27,0.000495879
125.06,0.000517982
130.85,0.000405415
136.63,0.000403514
142.42,0.000360149
148.2,0.000256104
153.99,0.000302417
159.77,0.000196893
165.56,0.000148418
171.34,0.000171797
177.13,9.70514E-05
182.91,7.95757E-05
188.7,7.15599E-05
194.48,2.21792E-05
200.27,2.3325E-05
206.06,6.21179E-05
211.84,9.12881E-05
217.63,0.000125199
223.41,0.000213924
229.2,0.000199017
234.98,0.000250967
240.77,0.000333027
246.55,0.000482418
252.34,0.000569039
258.12,0.000656893
263.91,0.000824735
269.69,0.000923374
275.48,0.001096804
281.27,0.001303778
287.05,0.001531005
292.84,0.001823025
298.62,0.002142703
304.41,0.002443277
310.19,0.002804222
315.98,0.003179872
321.76,0.003445816
327.55,0.003900912
333.33,0.00429049
339.12,0.004832025
344.91,0.005383734
350.69,0.005884124
356.48,0.006470167
362.26,0.007006408
368.05,0.007538834
373.83,0.008084487
379.62,0.008592475
385.4,0.009119561
391.19,0.009776472
396.97,0.0104223
402.76,0.0109852
408.54,0.0120112
414.33,0.0124187
420.12,0.0132395
425.9,0.01385361
431.69,0.0146601
437.47,0.0153203
443.26,0.0160511
449.04,0.0170544
454.83,0.0178262
460.61,0.0182522
466.4,0.0189992
472.18,0.019321
477.97,0.0197379
483.75,0.0200829
489.54,0.0199698
495.33,0.0198657
501.11,0.0199179
506.9,0.020106
512.68,0.02038763
518.47,0.0207765
524.25,0.02116
530.04,0.0217641
535.82,0.0230262
541.61,0.0233935
547.39,0.0240848
553.18,0.023542
558.96,0.0233259
564.75,0.022038
570.54,0.0209352
576.32,0.01964973
582.11,0.0181717
587.89,0.0168655
593.68,0.0154759
599.46,0.0139158
605.25,0.0124645
611.03,0.0109716
616.82,0.009557512
622.6,0.008285575
628.39,0.007249947
634.18,0.00634383
639.96,0.005754479
645.75,0.005091964
651.53,0.004777831
657.32,0.004147079
663.1,0.003742632
668.89,0.003318047
674.67,0.002797997
680.46,0.002470352
686.24,0.002109155
692.03,0.001571432
697.81,0.001098616
703.6,0.000642662
709.39,0.000520287
715.17,0.000284342
720.96,6.50076E-05
726.74,0.000260989
732.53,0.000197116
738.31,0.000321851
744.1,0.000542562
749.88,0.000971414
755.67,0.001279191
761.45,0.001835377
767.24,0.002361695
773.02,0.002867489
778.81,0.003283856
784.6,0.003520953
790.38,0.003796519
796.17,0.003849673
801.95,0.003565882
807.74,0.003409735
813.52,0.002675385
819.31,0.00199804
825.09,0.001541391
830.88,0.001023579
836.66,0.001291402
842.45,0.001585167
848.23,0.002428681
854.02,0.004025601
859.81,0.005788993
865.59,0.008082958
871.38,0.0108626
877.16,0.0144056
882.95,0.0181125
888.73,0.0224388
894.52,0.0272582
900.3,0.0329117
906.09,0.0384163
911.87,0.0437955
917.66,0.04916547
923.45,0.0543099
929.23,0.0595295
935.02,0.06377493
940.8,0.0677018
946.59,0.0706022
952.37,0.0733732
958.16,0.07490511
963.94,0.07602535
969.73,0.0755963
975.51,0.0752146
981.3,0.0736887
987.08,0.0717939
992.87,0.0696264
998.66,0.0670483
1004.44,0.0646964
1010.23,0.0624349
1016.01,0.06037923
1021.8,0.0588855
1027.58,0.0581018
1033.37,0.0575996
1039.15,0.0575689
1044.94,0.0574661
1050.72,0.0577219
1056.51,0.0584565
1062.3,0.0586815
1068.08,0.059582
1073.87,0.0602536
1079.65,0.0594988
1085.44,0.0596172
1091.22,0.0578432
1097.01,0.0557975
1102.79,0.053223
1108.58,0.049411
1114.36,0.0453058
1120.15,0.0421294
1125.93,0.03830045
1131.72,0.0341875
1137.51,0.0310524
1143.29,0.02784308
1149.08,0.0249231
1154.86,0.0221974
1160.65,0.0194336
1166.43,0.01757518
1172.22,0.015191
1178,0.0128518
1183.79,0.01096145
1189.57,0.009375091
1195.36,0.007920401
1201.14,0.006227153
1206.93,0.004978513
1212.72,0.003893774
1218.5,0.002596594
1224.29,0.001783264
1230.07,0.001270532
1235.86,0.000690758
1241.64,0.000606102
1247.43,0.000263265
1253.21,0.000155602
1259,0.000129238
1264.78,0.000245086
1270.57,4.52231E-05
1276.35,0.000168374
1282.14,0.000242261
1287.93,0.000442626
1293.71,0.000635
1299.5,0.001032526
1305.28,0.001203105
1311.07,0.001316772
1316.85,0.001526342
1322.64,0.001707018
1328.42,0.001299281
1334.21,0.001296511
1339.99,0.000990034
1345.78,0.000842642
1351.57,0.000734082
1357.35,0.000694208
1363.14,0.000695029
1368.92,0.000288264
1374.71,0.000555294
1380.49,0.000696178
1386.28,0.000439395
1392.06,0.000478354
1397.85,0.000363973
1403.63,0.000375382
1409.42,0.000461147
1415.2,0.000561068
1420.99,0.000365984
1426.78,0.00044669
1432.56,0.000745263
1438.35,0.000502655
1444.13,0.000500637
1449.92,0.000472936
1455.7,0.000523173
1461.49,0.000652582
1467.27,0.000596161
1473.06,0.00056195
1478.84,0.000632115
1484.63,0.000849286
1490.41,0.000597523
1496.2,0.000731478
1501.99,0.000690754
1507.77,0.000925085
1513.56,0.000781955
1519.34,0.000695807
1525.13,0.000590912
1530.91,0.000706667
1536.7,0.000341622
1542.48,0.000447567
1548.27,0.000805923
1554.05,0.002983026
1559.84,0.001488967
1565.62,0.000164751
1571.41,8.52227E-05
1577.2,0.00014744
1582.98,0.000317935
1588.77,-3.14404E-05
1594.55,-9.45915E-05
1599.37,-3.99746E-05