File: PhD Work/Raman Plotter_050524/Plot Data/UG Glasses/SLS/JC_UG_SLS3_5th_cut_bas_ther_vect_050624.csv
RamanShift,SLS3
49.85,-3.41493E-05
55.64,7.23237E-05
61.42,0.0002297
67.21,0.000182334
72.99,0.000363155
78.78,0.000346916
84.56,0.000401769
90.35,0.000458165
96.13,0.00047056
101.92,0.000412066
107.7,0.00054193
113.49,0.000429785
119.27,0.000462912
125.06,0.000482368
130.85,0.000395091
136.63,0.000403896
142.42,0.000364283
148.2,0.000253267
153.99,0.00029752
159.77,0.000201843
165.56,0.000145266
171.34,0.000168416
177.13,9.58299E-05
182.91,8.74578E-05
188.7,6.73821E-05
194.48,4.28567E-05
200.27,2.23707E-05
206.06,8.55138E-05
211.84,0.000108154
217.63,0.000169181
223.41,0.000210943
229.2,0.000249364
234.98,0.00035793
240.77,0.000389857
246.55,0.000570983
252.34,0.000690733
258.12,0.000855043
263.91,0.001054205
269.69,0.00116704
275.48,0.001410383
281.27,0.001580701
287.05,0.001907957
292.84,0.002235814
298.62,0.002648817
304.41,0.00300538
310.19,0.003415036
315.98,0.003870056
321.76,0.004206497
327.55,0.004656608
333.33,0.005164759
339.12,0.005664864
344.91,0.006266163
350.69,0.006896412
356.48,0.007519738
362.26,0.008101016
368.05,0.008639703
373.83,0.009183791
379.62,0.009763527
385.4,0.0102649
391.19,0.0109695
396.97,0.011732
402.76,0.0122894
408.54,0.0131291
414.33,0.01382322
420.12,0.0146271
425.9,0.0153082
431.69,0.0160997
437.47,0.0169994
443.26,0.0176018
449.04,0.0186211
454.83,0.0194183
460.61,0.0198413
466.4,0.020632
472.18,0.0208532
477.97,0.0212618
483.75,0.0216948
489.54,0.0215847
495.33,0.0214642
501.11,0.0214548
506.9,0.0216887
512.68,0.0221153
518.47,0.0226325
524.25,0.0231486
530.04,0.0239609
535.82,0.0253419
541.61,0.02605093
547.39,0.0269611
553.18,0.0266002
558.96,0.0266003
564.75,0.0254174
570.54,0.0244483
576.32,0.0231837
582.11,0.0217568
587.89,0.0204685
593.68,0.019185
599.46,0.0176567
605.25,0.0159378
611.03,0.0143469
616.82,0.0128845
622.6,0.0116527
628.39,0.0104598
634.18,0.009637708
639.96,0.00881931
645.75,0.008067753
651.53,0.007529648
657.32,0.00683061
663.1,0.006179015
668.89,0.00557006
674.67,0.004833171
680.46,0.004087488
686.24,0.00354881
692.03,0.002906174
697.81,0.002164178
703.6,0.001473735
709.39,0.001155027
715.17,0.000809792
720.96,0.000579992
726.74,0.000394692
732.53,0.000225769
738.31,0.000299611
744.1,0.00067301
749.88,0.000810983
755.67,0.00136761
761.45,0.001925011
767.24,0.002602942
773.02,0.00324019
778.81,0.003733554
784.6,0.004134452
790.38,0.004268118
796.17,0.004327624
801.95,0.003963494
807.74,0.003624456
813.52,0.002850081
819.31,0.002078758
825.09,0.001323271
830.88,0.000429893
836.66,5.10784E-05
842.45,0.000149358
848.23,0.00051357
854.02,0.001382539
859.81,0.002867737
865.59,0.004535697
871.38,0.006672142
877.16,0.009291105
882.95,0.0124178
888.73,0.0160461
894.52,0.0201358
900.3,0.0247973
906.09,0.0293648
911.87,0.0343336
917.66,0.0394018
923.45,0.0440396
929.23,0.0493386
935.02,0.0535063
940.8,0.057675
946.59,0.0611682
952.37,0.0639304
958.16,0.0659188
963.94,0.0673912
969.73,0.0675818
975.51,0.067753
981.3,0.0669494
987.08,0.0658528
992.87,0.0644041
998.66,0.0627966
1004.44,0.0612357
1010.23,0.0596233
1016.01,0.05843319
1021.8,0.0575487
1027.58,0.0572645
1033.37,0.05717953
1039.15,0.058125
1044.94,0.0586548
1050.72,0.0598644
1056.51,0.0616376
1062.3,0.0631682
1068.08,0.0653371
1073.87,0.0669561
1079.65,0.0679192
1085.44,0.069032
1091.22,0.068476
1097.01,0.0666176
1102.79,0.0641366
1108.58,0.0600693
1114.36,0.0553205
1120.15,0.0512032
1125.93,0.04653
1131.72,0.0419177
1137.51,0.0379017
1143.29,0.0339749
1149.08,0.0306733
1154.86,0.0275927
1160.65,0.0244404
1166.43,0.0216847
1172.22,0.01898347
1178,0.0168381
1183.79,0.0146529
1189.57,0.0124417
1195.36,0.0103
1201.14,0.008435332
1206.93,0.006863587
1212.72,0.005549556
1218.5,0.004093277
1224.29,0.003018503
1230.07,0.002326929
1235.86,0.001514494
1241.64,0.001072343
1247.43,0.000643005
1253.21,0.000630369
1259,0.000282953
1264.78,0.000320543
1270.57,0.000306524
1276.35,0.000125412
1282.14,0.000256085
1287.93,0.000197272
1293.71,0.000250123
1299.5,0.00028858
1305.28,0.000177847
1311.07,0.000287523
1316.85,0.000468374
1322.64,0.000396758
1328.42,0.000704871
1334.21,0.000390055
1339.99,0.000543737
1345.78,0.000806566
1351.57,0.000558575
1357.35,0.000575827
1363.14,0.00066714
1368.92,0.000726452
1374.71,0.000651292
1380.49,0.000819609
1386.28,0.000744117
1392.06,0.000890599
1397.85,0.000894737
1403.63,0.000772811
1409.42,0.000876263
1415.2,0.001003212
1420.99,0.000928305
1426.78,0.000963562
1432.56,0.000756025
1438.35,0.001021757
1444.13,0.000929436
1449.92,0.001039983
1455.7,0.000910128
1461.49,0.001180415
1467.27,0.000777676
1473.06,0.000849012
1478.84,0.000939309
1484.63,0.000955676
1490.41,0.001171258
1496.2,0.001098612
1501.99,0.000963026
1507.77,0.001198238
1513.56,0.000895443
1519.34,0.001137296
1525.13,0.001097809
1530.91,0.000710557
1536.7,0.000799058
1542.48,0.000845865
1548.27,0.000822019
1554.05,0.002523574
1559.84,0.001341038
1565.62,0.000432087
1571.41,0.000361053
1577.2,0.000108739
1582.98,0.000325583
1588.77,7.06627E-05
1594.55,0.000113978
1599.37,-0.000130222